Time:512Hz,Epoch,sinusOsc 1,sinusOsc 2,sinusOsc 3,sinusOsc 4,Event Id,Event Date,Event Duration
0.0000000000,0,0.0000000000,0.0000000000,0.0000000000,0.0000000000,,,
0.0019531250,0,0.1648452752,0.3273640801,0.4852704342,0.6363586276,,,
0.0039062500,0,0.3273640801,0.6363586276,0.9098872246,1.1333109212,,,
0.0058593750,0,0.4852704342,0.9098872246,1.2225847212,1.3894113257,,,
0.0078125000,0,0.6363586276,1.1333109212,1.3894113257,1.3687341120,,,
0.0097656250,0,0.7785415972,1.2954612569,1.3989593819,1.1104797424,,,
0.0117187500,0,0.9098872246,1.3894113257,1.2640846055,0.7179978555,,,
0.0136718750,0,1.0286519228,1.4129511326,1.0198475262,0.3302374016,,,
0.0156250000,0,1.1333109212,1.3687341120,0.7179978555,0.0834505686,,,
0.0175781250,0,1.2225847212,1.2640846055,0.4188611380,0.0736481894,,,
0.0195312500,0,1.2954612569,1.1104797424,0.1818916474,0.3300982460,,,
0.0214843750,0,1.3512133748,0.9227418688,0.0563632157,0.8071323783,,,
0.0234375000,0,1.3894113257,0.7179978555,0.0736481894,1.3965074831,,,
0.0253906250,0,1.4099300505,0.5144778711,0.2422873335,1.9569357977,,,
0.0273437500,0,1.4129511326,0.3302374016,0.5466187881,2.3526913275,,,
0.0292968750,0,1.3989593819,0.1818916474,0.9491798220,2.4907127401,,,
0.0312500000,0,1.3687341120,0.0834505686,1.3965074831,2.3460347303,,,
0.0332031250,0,1.3233352617,0.0453358269,1.8274348289,1.9685784838,,,
0.0351562500,0,1.2640846055,0.0736481894,2.1825907043,1.4694405683,,,
0.0371093750,0,1.1925423807,0.1697364940,2.4136235565,0.9904382474,,,
0.0390625000,0,1.1104797424,0.3300982460,2.4907127401,0.6652579106,,,
0.0410156250,0,1.0198475262,0.5466187881,2.4071974770,0.5828544425,,,
0.0429687500,0,0.9227418688,0.8071323783,2.1806025581,0.7631322311,,,
0.0449218750,0,0.8213672859,1.0962660593,1.8499010769,1.1515722864,,,
0.0468750000,0,0.7179978555,1.3965074831,1.4694405683,1.6342771847,,,
0.0488281250,0,0.6149371862,1.6894222381,1.1004785968,2.0693094508,,,
0.0507812500,0,0.5144778711,1.9569357977,0.8016461565,2.3257332731,,,
0.0527343750,0,0.4188611380,2.1825907043,0.6198242252,2.3196580229,,,
0.0546875000,0,0.3302374016,2.3526913275,0.5828544425,2.0374036140,,,
0.0566406250,0,0.2506284101,2.4572563751,0.6952191857,1.5394371117,,,
0.0585937500,0,0.1818916474,2.4907127401,0.9373637994,0.9439999007,,,
0.0605468750,0,0.1256876153,2.4522823045,1.2687664296,0.3949108210,,,
0.0625000000,1,0.0834505686,2.3460347303,1.6342771847,0.0223674799,,,
0.0644531250,1,0.0563632157,2.1806025581,1.9727391135,-0.0925131326,,,
0.0664062500,1,0.0453358269,1.9685784838,2.2265480668,0.0603015178,,,
0.0683593750,1,0.0509901179,1.7256368435,2.3506622562,0.4172396630,,,
0.0703125000,1,0.0736481894,1.4694405683,2.3196580229,0.8587778323,,,
0.0722656250,1,0.1133267170,1.2184098309,2.1317326245,1.2424256986,,,
0.0742187500,1,0.1697364940,0.9904382474,1.8090303545,1.4420008852,,,
0.0761718750,1,0.2422873335,0.8016461565,1.3942409578,1.3824276050,,,
0.0781250000,1,0.3300982460,0.6652579106,0.9439999007,1.0605198516,,,
0.0800781250,1,0.4320127126,0.5906814649,0.5201181768,0.5460511577,,,
0.0820312500,1,0.5466187881,0.5828544425,0.1800073794,-0.0371841020,,,
0.0839843750,1,0.6722736806,0.6419022723,-0.0322088923,-0.5451290503,,,
0.0859375000,1,0.8071323783,0.7631322311,-0.0925131326,-0.8527917255,,,
0.0878906250,1,0.9491798220,0.9373637994,-0.0006798677,-0.8883645456,,,
0.0898437500,1,1.0962660593,1.1515722864,0.2197443820,-0.6527859701,,,
0.0917968750,1,1.2461437673,1.3898008324,0.5251637004,-0.2193841945,,,
0.0937500000,1,1.3965074831,1.6342771847,0.8587778323,0.2862985568,,,
0.0957031250,1,1.5450338597,1.8666573587,1.1594832542,0.7209708579,,,
0.0976562500,1,1.6894222381,2.0693094508,1.3714435850,0.9628997326,,,
0.0996093750,1,1.8274348289,2.2265480668,1.4528384154,0.9452877596,,,
0.1015625000,1,1.9569357977,2.3257332731,1.3824276050,0.6745718556,,,
0.1035156250,1,2.0759285700,2.3581574258,1.1629083582,0.2286286825,,,
0.1054687500,1,2.1825907043,2.3196580229,0.8205419397,-0.2646211776,,,
0.1074218750,1,2.2753057205,2.2109138297,0.4011079248,-0.6623458227,,,
0.1093750000,1,2.3526913275,2.0374036140,-0.0371841020,-0.8460419110,,,
0.1113281250,1,2.4136235565,1.8090303545,-0.4327215806,-0.7541264530,,,
0.1132812500,1,2.4572563751,1.5394371117,-0.7300489404,-0.3989470030,,,
0.1152343750,1,2.4830364418,1.2450622533,-0.8884716710,0.1364529876,,,
0.1171875000,1,2.4907127401,0.9439999007,-0.8883645456,0.7209285523,,,
0.1191406250,1,2.4803409248,0.6547450446,-0.7342016140,1.2109964516,,,
0.1210937500,1,2.4522823045,0.3949108210,-0.4538361681,1.4899673467,,,
0.1230468750,1,2.4071974770,0.1800073794,-0.0941429486,1.4997237708,,,
0.1250000000,2,2.3460347303,0.0223674799,0.2862985568,1.2564364343,,,
0.1269531250,2,2.2700134121,-0.0697062762,0.6263400274,0.8459135047,,,
0.1289062500,2,2.1806025581,-0.0925131326,0.8717964088,0.3998595580,,,
0.1308593750,2,2.0794951543,-0.0472049343,0.9838894830,0.0595530326,,,
0.1328125000,2,1.9685784838,0.0603015178,0.9452877596,-0.0631007468,,,
0.1347656250,2,1.8499010769,0.2197443820,0.7628019458,0.0835353785,,,
0.1367187500,2,1.7256368435,0.4172396630,0.4663161840,0.4764568219,,,
0.1386718750,2,1.5980470159,0.6362566450,0.1041215666,1.0241066230,,,
0.1406250000,2,1.4694405683,0.8587778323,-0.2646211776,1.5912609145,,,
0.1425781250,2,1.3421338058,1.0665624964,-0.5791157637,2.0358921126,,,
0.1445312500,2,1.2184098309,1.2424256986,-0.7864228378,2.2479086352,,,
0.1464843750,2,1.1004785968,1.3714435850,-0.8497322400,2.1791555437,,,
0.1484375000,2,0.9904382474,1.4420008852,-0.7541264530,1.8564555014,,,
0.1503906250,2,0.8902384204,1.4466075559,-0.5089373882,1.3741174399,,,
0.1523437500,2,0.8016461565,1.3824276050,-0.1463292489,0.8679674582,,,
0.1542968750,2,0.7262150113,1.2514832059,0.2836719961,0.4780205127,,,
0.1562500000,2,0.6652579106,1.0605198516,0.7209285523,0.3100244990,,,
0.1582031250,2,0.6198242252,0.8205419397,1.1045132822,0.4064171814,,,
0.1601562500,2,0.5906814649,0.5460511577,1.3821529403,0.7346564520,,,
0.1621093750,2,0.5783019143,0.2540407661,1.5183215760,1.1961226932,,,
0.1640625000,2,0.5828544425,-0.0371841020,1.4997237708,1.6531536145,,,
0.1660156250,2,0.6042016316,-0.3092778736,1.3373139346,1.9668021611,,,
0.1679687500,2,0.6419022723,-0.5451290503,1.0645374209,2.0349690105,,,
0.1699218750,2,0.6952191857,-0.7300489404,0.7320676951,1.8204583049,,,
0.1718750000,2,0.7631322311,-0.8527917255,0.3998595580,1.3612667999,,,
0.1738281250,2,0.8443562740,-0.9063347375,0.1277564646,0.7602857029,,,
0.1757812500,2,0.9373637994,-0.8883645456,-0.0338848120,0.1572366446,,,
0.1777343750,2,1.0404117741,-0.8014349639,-0.0520916208,-0.3094678625,,,
0.1796875000,2,1.1515722864,-0.6527859701,0.0835353785,-0.5404879020,,,
0.1816406250,2,1.2687664296,-0.4538361681,0.3591498107,-0.5025952150,,,
0.1835937500,2,1.3898008324,-0.2193841945,0.7387647315,-0.2375788840,,,
0.1855468750,2,1.5124061994,0.0334252384,1.1698077144,0.1494213822,,,
0.1875000000,3,1.6342771847,0.2862985568,1.5912609145,0.5189549878,,,
0.1894531250,3,1.7531129016,0.5210703076,1.9431185114,0.7357123196,,,
0.1914062500,3,1.8666573587,0.7209708579,2.1756887376,0.7058481899,,,
0.1933593750,3,1.9727391135,0.8717964088,2.2572918891,0.4029455027,,,
0.1953125000,3,2.0693094508,0.9628997326,2.1791555437,-0.1244988728,,,
0.1972656250,3,2.1544784149,0.9879325475,1.9567447409,-0.7661198514,,,
0.1992187500,3,2.2265480668,0.9452877596,1.6273201425,-1.3796882339,,,
0.2011718750,3,2.2840423833,0.8382107369,1.2441046838,-1.8298520966,,,
0.2031250000,3,2.3257332731,0.6745718556,0.8679674582,-2.0249997390,,,
0.2050781250,3,2.3506622562,0.4663161840,0.5579202604,-1.9421432231,,,
0.2070312500,3,2.3581574258,0.2286286825,0.3619071332,-1.6330046614,,,
0.2089843750,3,2.3478453955,-0.0211268631,0.3093216037,-1.2096390757,,,
0.2109375000,3,2.3196580229,-0.2646211776,0.4064171814,-0.8135359478,,,
0.2128906250,3,2.2738337922,-0.4838404859,0.6353260254,-0.5766694511,,,
0.2148437500,3,2.2109138297,-0.6623458227,0.9568386819,-0.5851738322,,,
0.2167968750,3,2.1317326245,-0.7864228378,1.3165119586,-0.8556007782,,,
0.2187500000,3,2.0374036140,-0.8460419110,1.6531536145,-1.3302670931,,,
0.2207031250,3,1.9292998892,-0.8355616133,1.9083623131,-1.8929687428,,,
0.2226562500,3,1.8090303545,-0.7541264530,2.0356369104,-2.4007553301,,,
0.2246093750,3,1.6784117627,-0.6057311583,2.0076362012,-2.7230571803,,,
0.2265625000,3,1.5394371117,-0.3989470030,1.8204583049,-2.7774418870,,,
0.2285156250,3,1.3942409578,-0.1463292489,1.4942730593,-2.5522007238,,,
0.2304687500,3,1.2450622533,0.1364529876,1.0702088070,-2.1095746572,,,
0.2324218750,3,1.0942053566,0.4317037791,0.6039783403,-1.5687355955,,,
0.2343750000,3,0.9439999007,0.7209285523,0.1572366446,-1.0731867792,,,
0.2363281250,3,0.7967602195,0.9861177446,-0.2119836546,-0.7515162671,,,
0.2382812500,3,0.6547450446,1.2109964516,-0.4582695971,-0.6822589892,,,
0.2402343750,3,0.5201181768,1.3821529403,-0.5558567725,-0.8724966169,,,
0.2421875000,3,0.3949108210,1.4899673467,-0.5025952150,-1.2560591950,,,
0.2441406250,3,0.2809862452,1.5292758136,-0.3202348315,-1.7118200601,,,
0.2460937500,3,0.1800073794,1.4997237708,-0.0509861503,-2.0970684467,,,
0.2480468750,3,0.0934079254,1.4057837393,0.2491076739,-2.2868116966,,,
0.2500000000,4,0.0223674799,1.2564364343,0.5189549878,-2.2082337379,,,
0.2519531250,4,-0.0322088923,1.0645374209,0.7019874523,-1.8608639094,,,
0.2539062500,4,-0.0697062762,0.8459135047,0.7550284002,-1.3169264768,,,
0.2558593750,4,-0.0898104451,0.6182518862,0.6550761577,-0.7017729956,,,
0.2578125000,4,-0.0925131326,0.3998595580,0.4029455027,-0.1597583084,,,
0.2597656250,4,-0.0781119480,0.2083794740,0.0231997895,0.1850896046,,,
0.2617187500,4,-0.0472049343,0.0595530326,-0.4396159819,0.2628288715,,,
0.2636718750,4,-0.0006798677,-0.0338848120,-0.9278547274,0.0765418351,,,
0.2656250000,4,0.0603015178,-0.0631007468,-1.3796882339,-0.2987362122,,,
0.2675781250,4,0.1343241012,-0.0237861635,-1.7386803119,-0.7368019713,,,
0.2695312500,4,0.2197443820,0.0835353785,-1.9625213604,-1.0950842003,,,
0.2714843750,4,0.3147194864,0.2535377435,-2.0295641664,-1.2539192979,,,
0.2734375000,4,0.4172396630,0.4764568219,-1.9421432231,-1.1495363031,,,
0.2753906250,4,0.5251637004,0.7387647315,-1.7261608279,-0.7917093795,,,
0.2773437500,4,0.6362566450,1.0241066230,-1.4270046753,-0.2612381721,,,
0.2792968750,4,0.7482291595,1.3144347750,-1.1024330403,0.3120548556,,,
0.2812500000,4,0.8587778323,1.5912609145,-0.8135359478,0.7847811254,,,
0.2832031250,4,0.9656257321,1.8369394441,-0.6151803842,1.0391801871,,,
0.2851562500,4,1.0665624964,2.0358921126,-0.5474279555,1.0153104690,,,
0.2871093750,4,1.1594832542,2.1756887376,-0.6292619160,0.7274147604,,,
0.2890625000,4,1.2424256986,2.2479086352,-0.8556007782,0.2599756842,,,
0.2910156250,4,1.3136046616,2.2487226981,-1.1980637952,-0.2554574247,,,
0.2929687500,4,1.3714435850,2.1791555437,-1.6093692103,-0.6763190413,,,
0.2949218750,4,1.4146023369,2.0450094657,-2.0306803324,-0.8880750805,,,
0.2968750000,4,1.4420008852,1.8564555014,-2.4007553301,-0.8355661309,,,
0.2988281250,4,1.4528384154,1.6273201425,-2.6654756841,-0.5380565372,,,
0.3007812500,4,1.4466075559,1.3741174399,-2.7862692336,-0.0838655116,,,
0.3027343750,4,1.4231034628,1.1148940050,-2.7461159084,0.3939473964,,,
0.3046875000,4,1.3824276050,0.8679674582,-2.5522007238,0.7541775274,,,
0.3066406250,4,1.3249861825,0.6506463049,-2.2348008026,0.8863201473,,,
0.3085937500,4,1.2514832059,0.4780205127,-1.8425797366,0.7410176286,,,
0.3105468750,4,1.1629083582,0.3619071332,-1.4350221558,0.3437625704,,,
0.3125000000,5,1.0605198516,0.3100244990,-1.0731867792,-0.2119004478,,,
0.3144531250,5,0.9458225784,0.3254525869,-0.8102181100,-0.7898130897,,,
0.3164062500,5,0.8205419397,0.4064171814,-0.6830945046,-1.2483115247,,,
0.3183593750,5,0.6865938091,0.5464128923,-0.7068977625,-1.4788364654,,,
0.3203125000,5,0.5460511577,0.7346564520,-0.8724966169,-1.4354651966,,,
0.3222656250,5,0.4011079248,0.9568386819,-1.1480047637,-1.1472738665,,,
0.3242187500,5,0.2540407661,1.1961226932,-1.4837861393,-0.7101440528,,,
0.3261718750,5,0.1071693504,1.4343187135,-1.8202276440,-0.2602613298,,,
0.3281250000,5,-0.0371841020,1.6531536145,-2.0970684467,0.0634287720,,,
0.3300781250,5,-0.1767353284,1.8355466094,-2.2628325485,0.1575156101,,,
0.3320312500,5,-0.3092778736,1.9668021611,-2.2828951878,-0.0173284533,,,
0.3339843750,5,-0.4327215806,2.0356369104,-2.1449264448,-0.4253728324,,,
0.3359375000,5,-0.5451290503,2.0349690105,-1.8608639094,-0.9654362809,,,
0.3378906250,5,-0.6447494299,1.9624148188,-1.4651068845,-1.4984458890,,,
0.3398437500,5,-0.7300489404,1.8204583049,-1.0092131066,-1.8853960963,,,
0.3417968750,5,-0.7997376070,1.6162813554,-0.5539237113,-2.0253058315,,,
0.3437500000,5,-0.8527917255,1.3612667999,-0.1597583084,-1.8827722525,,,
0.3457031250,5,-0.8884716710,1.0702088070,0.1223552593,-1.4975706525,,,
0.3476562500,5,-0.9063347375,0.7602857029,0.2589573004,-0.9736705310,,,
0.3496093750,5,-0.9062427827,0.4498668311,0.2392123056,-0.4506790511,,,
0.3515625000,5,-0.8883645456,0.1572366446,0.0765418351,-0.0655390377,,,
0.3535156250,5,-0.8531725951,-0.1006750062,-0.1935197836,0.0850205908,,,
0.3554687500,5,-0.8014349639,-0.3094678625,-0.5189126821,-0.0290095076,,,
0.3574218750,5,-0.7342016140,-0.4582695971,-0.8392110875,-0.3627217885,,,
0.3593750000,5,-0.6527859701,-0.5404879020,-1.0950842003,-0.8086493471,,,
0.3613281250,5,-0.5587418465,-0.5542638911,-1.2375844752,-1.2262910912,,,
0.3632812500,5,-0.4538361681,-0.5025952150,-1.2358163644,-1.4807120278,,,
0.3652343750,5,-0.3400179670,-0.3931203161,-1.0817908424,-1.4796387184,,,
0.3671875000,5,-0.2193841945,-0.2375788840,-0.7917093795,-1.1988821934,,,
0.3691406250,5,-0.0941429486,-0.0509861503,-0.4034771709,-0.6891195296,,,
0.3710937500,5,0.0334252384,0.1494213822,0.0291672348,-0.0621741496,,,
0.3730468750,5,0.1610073766,0.3453952436,0.4449917410,0.5394464697,,,
0.3750000000,6,0.2862985568,0.5189549878,0.7847811254,0.9814084992,,,
0.3769531250,6,0.4070423425,0.6536495966,1.0005369179,1.1741568928,,,
0.3789062500,6,0.5210703076,0.7357123196,1.0629339198,1.0972374518,,,
0.3808593750,6,0.6263400274,0.7550284002,0.9658720706,0.8046718379,,,
0.3828125000,6,0.7209708579,0.7058481899,0.7274147604,0.4099144509,,,
0.3847656250,6,0.8032768767,0.5871959046,0.3869674993,0.0545161477,,,
0.3867187500,6,0.8717964088,0.4029455027,-0.0008635859,-0.1309147125,,,
0.3886718750,6,0.9253176204,0.1615583760,-0.3747768388,-0.0627523168,,,
0.3906250000,6,0.9628997326,-0.1244988728,-0.6763190413,0.2724851298,,,
0.3925781250,6,0.9838894830,-0.4396159819,-0.8589817634,0.8142025350,,,
0.3945312500,6,0.9879325475,-0.7661198514,-0.8954333414,1.4441036551,,,
0.3964843750,6,0.9749797227,-1.0854992806,-0.7817601324,2.0183894046,,,
0.3984375000,6,0.9452877596,-1.3796882339,-0.5380565372,2.4069561396,,,
0.4003906250,6,0.8994148344,-1.6323181664,-0.2052720016,2.5288527400,,,
0.4023437500,6,0.8382107369,-1.8298520966,0.1611937814,2.3742805529,,,
0.4042968750,6,0.7628019458,-1.9625213604,0.5001497385,2.0071083324,,,
0.4062500000,6,0.6745718556,-2.0249997390,0.7541775274,1.5472144212,,,
0.4082031250,6,0.5751364976,-2.0167679677,0.8786110466,1.1374970110,,,
0.4101562500,6,0.4663161840,-1.9421432231,0.8485325439,0.9045951687,,,
0.4121093750,6,0.3501035681,-1.8099715454,0.6626954298,0.9240868258,,,
0.4140625000,6,0.2286286825,-1.6330046614,0.3437625704,1.1997027388,,,
0.4160156250,6,0.1041215666,-1.4270046753,-0.0651772928,1.6622538712,,,
0.4179687500,6,-0.0211268631,-1.2096390757,-0.5072726602,2.1885665942,,,
0.4199218750,6,-0.1448050125,-0.9992431252,-0.9207143736,2.6352363467,,,
0.4218750000,6,-0.2646211776,-0.8135359478,-1.2483115247,2.8779488994,,,
0.4238281250,6,-0.3783437685,-0.6683798568,-1.4463469512,2.8455922399,,,
0.4257812500,6,-0.4838404859,-0.5766694511,-1.4913333118,2.5398096293,,,
0.4277343750,6,-0.5791157637,-0.5474279555,-1.3836177318,2.0346343113,,,
0.4296875000,6,-0.6623458227,-0.5851738322,-1.1472738665,1.4563051832,,,
0.4316406250,6,-0.7319107205,-0.6896018378,-0.8262984842,0.9487943486,,,
0.4335937500,6,-0.7864228378,-0.8556007782,-0.4777052620,0.6344932390,,,
0.4355468750,6,-0.8247513005,-1.0736067283,-0.1625917601,0.5808307104,,,
0.4375000000,7,-0.8460419110,-1.3302670931,0.0634287720,0.7819705904,,,
0.4394531250,7,-0.8497322400,-1.6093692103,0.1589401826,1.1606031806,,,
0.4414062500,7,-0.8355616133,-1.8929687428,0.1032234571,1.5893379440,,,
0.4433593750,7,-0.8035758188,-2.1626391818,-0.1004686706,1.9258323976,,,
0.4453125000,7,-0.7541264530,-2.4007553301,-0.4253728324,2.0520274556,,,
0.4472656250,7,-0.6878649154,-2.5917212692,-0.8253402936,1.9067339371,,,
0.4492187500,7,-0.6057311583,-2.7230571803,-1.2419840778,1.5026371429,,,
0.4511718750,7,-0.5089373882,-2.7862692336,-1.6137349713,0.9230569069,,,
0.4531250000,7,-0.3989470030,-2.7774418870,-1.8853960963,0.2993489279,,,
0.4550781250,7,-0.2774491358,-2.6975112897,-2.0167080724,-0.2248611659,,,
0.4570312500,7,-0.1463292489,-2.5522007238,-1.9885908777,-0.5328107935,,,
0.4589843750,7,-0.0076362937,-2.3516225857,-1.8060903662,-0.5663773644,,,
0.4609375000,7,0.1364529876,-2.1095746572,-1.4975706525,-0.3417921204,,,
0.4628906250,7,0.2836719961,-1.8425797366,-1.1102782771,0.0550138580,,,
0.4648437500,7,0.4317037791,-1.5687355955,-0.7029691648,0.4921540994,,,
0.4667968750,7,0.5782214120,-1.3064554511,-0.3367468509,0.8281122603,,,
0.4687500000,7,0.7209285523,-1.0731867792,-0.0655390377,0.9506913659,,,
0.4707031250,7,0.8575994542,-0.8841978024,0.0723041499,0.8079104886,,,
0.4726562500,7,0.9861177446,-0.7515162671,0.0599815666,0.4223797054,,,
0.4746093750,7,1.1045132822,-0.6830945046,-0.0951479725,-0.1147875465,,,
0.4765625000,7,1.2109964516,-0.6822589892,-0.3627217885,-0.6688572272,,,
0.4785156250,7,1.3039892961,-0.7474827672,-0.6941164066,-1.0983337104,,,
0.4804687500,7,1.3821529403,-0.8724966169,-1.0300387776,-1.2936936732,,,
0.4824218750,7,1.4444108249,-1.0467311763,-1.3097831999,-1.2073794232,,,
0.4843750000,7,1.4899673467,-1.2560591950,-1.4807120278,-0.8668315473,,,
0.4863281250,7,1.5183215760,-1.4837861393,-1.5064833760,-0.3669889726,,,
0.4882812500,7,1.5292758136,-1.7118200601,-1.3727441731,0.1556883137,,,
0.4902343750,7,1.5229388356,-1.9219391299,-1.0894016848,0.5605547556,,,
0.4921875000,7,1.4997237708,-2.0970684467,-0.6891195296,0.7412410587,,,
0.4941406250,7,1.4603406473,-2.2224770551,-0.2222722508,0.6547019843,,,
0.4960937500,7,1.4057837393,-2.2868116966,0.2508559108,0.3328900240,,,
0.4980468750,7,1.3373139346,-2.2828951878,0.6694131815,-0.1261432294,,,
0.5000000000,8,1.2564364343,-2.2082337379,0.9814084992,-0.5852777802,,,
0.5019531250,8,1.1648741720,-2.0651978116,1.1517575871,-0.9060781590,,,
0.5039062500,8,1.0645374209,-1.8608639094,1.1676938934,-0.9869199601,,,
0.5058593750,8,0.9574901192,-1.6065282828,1.0407018835,-0.7910388521,,,
0.5078125000,8,0.8459135047,-1.3169264768,0.8046718379,-0.3568127661,,,
0.5097656250,8,0.7320676951,-1.0092131066,0.5105638384,0.2125427690,,,
0.5117187500,8,0.6182518862,-0.7017729956,0.2184123419,0.7770440032,,,
0.5136718750,8,0.5067638670,-0.4129465606,-0.0120830380,1.1980821927,,,
0.5156250000,8,0.3998595580,-0.1597583084,-0.1309147125,1.3761889031,,,
0.5175781250,8,0.2997132838,0.0432629049,-0.1056145375,1.2780752052,,,
0.5195312500,8,0.2083794740,0.1850896046,0.0736310971,0.9455362731,,,
0.5214843750,8,0.1277564646,0.2589573004,0.3923955035,0.4837830153,,,
0.5234375000,8,0.0595530326,0.2628288715,0.8142025350,0.0324007523,,,
0.5253906250,8,0.0052582503,0.1995293665,1.2861530755,-0.2731037068,,,
0.5273437500,8,-0.0338848120,0.0765418351,1.7471110995,-0.3386258878,,,
0.5292968750,8,-0.0569010751,-0.0945215538,2.1371745480,-0.1374272276,,,
0.5312500000,8,-0.0631007468,-0.2987362122,2.4069561396,0.2823791178,,,
0.5332031250,8,-0.0520916208,-0.5189126821,2.5252288278,0.8108734173,,,
0.5351562500,8,-0.0237861635,-0.7368019713,2.4837453199,1.3063315768,,,
0.5371093750,8,0.0215967353,-0.9343746071,2.2984812136,1.6339629459,,,
0.5390625000,8,0.0835353785,-1.0950842003,2.0071083324,1.7027679072,,,
0.5410156250,8,0.1612141821,-1.2050273945,1.6630919942,1.4904145626,,,
0.5429687500,8,0.2535377435,-1.2539192979,1.3273317687,1.0493172412,,,
0.5449218750,8,0.3591498107,-1.2358163644,1.0586478771,0.4922513727,,,
0.5468750000,8,0.4764568219,-1.1495363031,0.9045951687,-0.0385524690,,,
0.5488281250,8,0.6036556018,-0.9987457217,0.8940355635,-0.4103648892,,,
0.5507812500,8,0.7387647315,-0.7917093795,1.0326259461,-0.5362877439,,,
0.5527343750,8,0.8796590413,-0.5407185251,1.3019243734,-0.3990013246,,,
0.5546875000,8,1.0241066230,-0.2612381721,1.6622538712,-0.0554208172,,,
0.5566406250,8,1.1698077144,0.0291672348,2.0588778059,0.3790134127,,,
0.5585937500,8,1.3144347750,0.3120548556,2.4305250053,0.7621052039,,,
0.5605468750,8,1.4556730500,0.5693860533,2.7189367908,0.9640234965,,,
0.5625000000,9,1.5912609145,0.7847811254,2.8779488994,0.9030515780,,,
0.5644531250,9,1.7190292899,0.9446586763,2.8806936910,0.5681654275,,,
0.5664062500,9,1.8369394441,1.0391801871,2.7238007958,0.0222515038,,,
0.5683593750,9,1.9431185114,1.0629339198,2.4279418414,-0.6149196599,,,
0.5703125000,9,2.0358921126,1.0153104690,2.0346343113,-1.1992994843,,,
0.5722656250,9,2.1138135029,0.9005437778,1.5998022241,-1.6018126178,,,
0.5742187500,9,2.1756887376,0.7274147604,1.1850964482,-1.7434978973,,,
0.5761718750,9,2.2205974153,0.5086382012,0.8483263970,-1.6169100155,,,
0.5781250000,9,2.2479086352,0.2599756842,0.6344932390,-1.2879184845,,,
0.5800781250,9,2.2572918891,-0.0008635859,0.5688210526,-0.8774130242,,,
0.5820312500,9,2.2487226981,-0.2554574247,0.6528711494,-0.5279315527,,,
0.5839843750,9,2.2224828942,-0.4859546744,0.8643445559,-0.3643592040,,,
0.5859375000,9,2.1791555437,-0.6763190413,1.1606031806,-0.4594717137,,,
0.5878906250,9,2.1196145997,-0.8134460281,1.4853609772,-0.8137687668,,,
0.5898437500,9,2.0450094657,-0.8880750805,1.7775026599,-1.3551263727,,,
0.5917968750,9,1.9567447409,-0.8954333414,1.9806561408,-1.9583654441,,,
0.5937500000,9,1.8564555014,-0.8355661309,2.0520274556,-2.4793752101,,,
0.5957031250,9,1.7459785506,-0.7133311091,1.9691218088,-2.7944409259,,,
0.5976562500,9,1.6273201425,-0.5380565372,1.7333036119,-2.8339988575,,,
0.5996093750,9,1.5026207417,-0.3228874747,1.3696407306,-2.6015686801,,,
0.6015625000,9,1.3741174399,-0.0838655116,0.9230569069,-2.1726756896,,,
0.6035156250,9,1.2441046838,0.1611937814,0.4513913433,-1.6740592340,,,
0.6054687500,9,1.1148940050,0.3939473964,0.0164461664,-1.2488665435,,,
0.6074218750,9,0.9887734553,0.5968084909,-0.3255841175,-1.0173719192,,,
0.6093750000,9,0.8679674582,0.7541775274,-0.5328107935,-1.0439874057,,,
0.6113281250,9,0.7545977803,0.8535350881,-0.5841222299,-1.3196065582,,,
0.6132812500,9,0.6506463049,0.8863201473,-0.4824206251,-1.7641203663,,,
0.6152343750,9,0.5579202604,0.8485325439,-0.2541203305,-2.2484156057,,,
0.6171875000,9,0.4780205127,0.7410176286,0.0550138580,-2.6298261328,,,
0.6191406250,9,0.4123134757,0.5694132222,0.3870399896,-2.7913203880,,,
0.6210937500,9,0.3619071332,0.3437625704,0.6809063236,-2.6736841908,,,
0.6230468750,9,0.3276315907,0.0778202702,0.8820002640,-2.2918775031,,,
0.6250000000,10,0.3100244990,-0.2119004478,0.9506913659,-1.7310810939,,,
0.6269531250,10,0.3093216037,-0.5072726602,0.8685376110,-1.1235152577,,,
0.6289062500,10,0.3254525869,-0.7898130897,0.6411881241,-0.6123823843,,,
0.6308593750,10,0.3580422736,-1.0419641808,0.2975300671,-0.3128139989,,,
0.6328125000,10,0.4064171814,-1.2483115247,-0.1147875465,-0.2805237468,,,
0.6347656250,10,0.4696172999,-1.3966517551,-0.5367560383,-0.4967557180,,,
0.6367187500,10,0.5464128923,-1.4788364654,-0.9071824177,-0.8736513443,,,
0.6386718750,10,0.6353260254,-1.4913333118,-1.1722088627,-1.2785619119,,,
0.6406250000,10,0.7346564520,-1.4354651966,-1.2936936732,-1.5706412435,,,
0.6425781250,10,0.8425113903,-1.3173108646,-1.2551483488,-1.6396874449,,,
0.6445312500,10,0.9568386819,-1.1472738665,-1.0643060715,-1.4365861863,,,
0.6464843750,10,1.0754627446,-0.9393499597,-0.7519215278,-0.9870097606,,,
0.6484375000,10,1.1961226932,-0.7101440528,-0.3669889726,-0.3846152674,,,
0.6503906250,10,1.3165119586,-0.4777052620,0.0308767061,0.2343960106,,,
0.6523437500,10,1.4343187135,-0.2602613298,0.3807093048,0.7283875767,,,
0.6542968750,10,1.5472663948,-0.0749406786,0.6296673527,0.9888965485,,,
0.6562500000,10,1.6531536145,0.0634287720,0.7412410587,0.9701626979,,,
0.6582031250,10,1.7498927604,0.1433602436,0.7009120134,0.7014864365,,,
0.6601562500,10,1.8355466094,0.1575156101,0.5183842685,0.2790304211,,,
0.6621093750,10,1.9083623131,0.1032234571,0.2260394583,-0.1606868029,,,
0.6640625000,10,1.9668021611,-0.0173284533,-0.1261432294,-0.4783392019,,,
0.6660156250,10,2.0095705820,-0.1972397480,-0.4784107904,-0.5700916540,,,
0.6679687500,10,2.0356369104,-0.4253728324,-0.7705850481,-0.3961509376,,,
0.6699218750,10,2.0442535208,-0.6871239678,-0.9514798736,0.0082564431,,,
0.6718750000,10,2.0349690105,-0.9654362809,-0.9869199601,0.5424888696,,,
0.6738281250,10,2.0076362012,-1.2419840778,-0.8651119342,1.0680447035,,,
0.6757812500,10,1.9624148188,-1.4984458890,-0.5985309620,1.4465160121,,,
0.6777343750,10,1.8997688046,-1.7177774841,-0.2220287324,1.5775389170,,,
0.6796875000,10,1.8204583049,-1.8853960963,0.2125427690,1.4263392704,,,
0.6816406250,10,1.7255264787,-1.9901932870,0.6443546012,1.0333237724,,,
0.6835937500,10,1.6162813554,-2.0253058315,1.0130219352,0.5030872444,,,
0.6855468750,10,1.4942730593,-1.9885908777,1.2679557546,-0.0241520066,,,
0.6875000000,11,1.3612667999,-1.8827722525,1.3761889031,-0.4108610506,,,
0.6894531250,11,1.2192121009,-1.7152477220,1.3274578226,-0.5597473215,,,
0.6914062500,11,1.0702088070,-1.4975706525,1.1357487602,-0.4402684038,,,
0.6933593750,11,0.9164704621,-1.2446422238,0.8370679004,-0.0968326072,,,
0.6953125000,11,0.7602857029,-0.9736705310,0.4837830153,0.3635555387,,,
0.6972656250,11,0.6039783403,-0.7029691648,0.1364182244,0.8008170832,,,
0.6992187500,11,0.4498668311,-0.4506790511,-0.1458198619,1.0803948142,,,
0.7011718750,11,0.3002238458,-0.2335026869,-0.3143087549,1.1103437460,,,
0.7031250000,11,0.1572366446,-0.0655390377,-0.3386258878,0.8667484914,,,
0.7050781250,11,0.0229689510,0.0426996546,-0.2113271668,0.4004992735,,,
0.7070312500,11,-0.1006750062,0.0850205908,0.0508562300,-0.1764326637,,,
0.7089843750,11,-0.2119836546,0.0599815666,0.4095894216,-0.7214608981,,,
0.7109375000,11,-0.3094678625,-0.0290095076,0.8108734173,-1.1002432968,,,
0.7128906250,11,-0.3918868249,-0.1739336565,1.1934277848,-1.2232870106,,,
0.7148437500,11,-0.4582695971,-0.3627217885,1.4982109078,-1.0702687338,,,
0.7167968750,11,-0.5079318999,-0.5800984213,1.6775951412,-0.6954067799,,,
0.7187500000,11,-0.5404879020,-0.8086493471,1.7027679072,-0.2124145663,,,
0.7207031250,11,-0.5558567725,-1.0300387776,1.5682060740,0.2368388783,,,
0.7226562500,11,-0.5542638911,-1.2262910912,1.2925267899,0.5213704739,,,
0.7246093750,11,-0.5362366915,-1.3810477926,0.9155823130,0.5571250357,,,
0.7265625000,11,-0.5025952150,-1.4807120278,0.4922513727,0.3301381800,,,
0.7285156250,11,-0.4544375356,-1.5154008349,0.0838941097,-0.0995293146,,,
0.7304687500,11,-0.3931203161,-1.4796387184,-0.2511984675,-0.6141650551,,,
0.7324218750,11,-0.3202348315,-1.3727441731,-0.4668729855,-1.0705998831,,,
0.7343750000,11,-0.2375788840,-1.1988821934,-0.5362877439,-1.3394010772,,,
0.7363281250,11,-0.1471250975,-0.9667790959,-0.4560749586,-1.3403227267,,,
0.7382812500,11,-0.0509861503,-0.6891195296,-0.2468430040,-1.0642976860,,,
0.7402343750,11,0.0486224482,-0.3816677109,0.0500594696,-0.5759438595,,,
0.7421875000,11,0.1494213822,-0.0621741496,0.3790134127,0.0041022005,,,
0.7441406250,11,0.2491076739,0.2508559108,0.6788253866,0.5321828822,,,
0.7460937500,11,0.3453952436,0.5394464697,0.8922950993,0.8809051719,,,
0.7480468750,11,0.4360551763,0.7873976429,0.9751640918,0.9739480932,,,
0.7500000000,12,0.5189549878,0.9814084992,0.9030515780,0.8068531766,,,
0.7519531250,12,0.5920962042,1.1119975750,0.6752969339,0.4481010226,,,
0.7539062500,12,0.6536495966,1.1741568928,0.3151101245,0.0201801873,,,
0.7558593750,12,0.7019874523,1.1676938934,-0.1339935981,-0.3341617189,,,
0.7578125000,12,0.7357123196,1.0972374518,-0.6149196599,-0.4912335635,,,
0.7597656250,12,0.7536817204,0.9719075762,-1.0658334479,-0.3805059257,,,
0.7617187500,12,0.7550284002,0.8046718379,-1.4297364149,-0.0041569641,,,
0.7636718750,12,0.7391757583,0.6114334280,-1.6632877530,0.5632999619,,,
0.7656250000,12,0.7058481899,0.4099144509,-1.7434978973,1.1952068865,,,
0.7675781250,12,0.6550761577,0.2184123419,-1.6712515984,1.7472385069,,,
0.7695312500,12,0.5871959046,0.0545161477,-1.4711121186,2.0967190811,,,
0.7714843750,12,0.5028438120,-0.0661277984,-1.1874373412,2.1760055366,,,
0.7734375000,12,0.4029455027,-0.1309147125,-0.8774130242,1.9907896528,,,
0.7753906250,12,0.2886998792,-0.1311680668,-0.6020885979,1.6183053944,,,
0.7773437500,12,0.1615583760,-0.0627523168,-0.4168120175,1.1859348344,,,
0.7792968750,12,0.0231997895,0.0736310971,-0.3625537799,0.8360782084,,,
0.7812500000,12,-0.1244988728,0.2724851298,-0.4594717137,0.6869181620,,,
0.7832031250,12,-0.2794950163,0.5238930265,-0.7037191343,0.7998334366,,,
0.7851562500,12,-0.4396159819,0.8142025350,-1.0679937759,1.1623947214,,,
0.7871093750,12,-0.6025968486,1.1269707411,-1.5057422552,1.6916046697,,,
0.7890625000,12,-0.7661198514,1.4441036551,-1.9583654441,2.2564956184,,,
0.7910156250,12,-0.9278547274,1.7471110995,-2.3643027083,2.7138930310,,,
0.7929687500,12,-1.0854992806,2.0183894046,-2.6685803107,2.9475441850,,,
0.7949218750,12,-1.2368194580,2.2424424820,-2.8313369695,2.8998891375,,,
0.7968750000,12,-1.3796882339,2.4069561396,-2.8339988575,2.5877673403,,,
0.7988281250,12,-1.5121226217,2.5036507375,-2.6821424243,2.0977558417,,,
0.8007812500,12,-1.6323181664,2.5288527400,-2.4045992957,1.5624171768,,,
0.8027343750,12,-1.7386803119,2.4837453199,-2.0489427996,1.1239669259,,,
0.8046875000,12,-1.8298520966,2.3742805529,-1.6740592340,0.8953186036,,,
0.8066406250,12,-1.9047376901,2.2107593353,-1.3409610350,0.9291821267,,,
0.8085937500,12,-1.9625213604,2.0071083324,-1.1032728179,1.2036846594,,,
0.8105468750,12,-2.0026815392,1.7799043854,-0.9988721974,1.6284541419,,,
0.8125000000,13,-2.0249997390,1.5472144212,-1.0439874057,2.0694974039,,,
0.8144531250,13,-2.0295641664,1.3273317687,-1.2306710485,2.3860535426,,,
0.8164062500,13,-2.0167679677,1.1374970110,-1.5280434680,2.4693210022,,,
0.8183593750,13,-1.9873021391,0.9926925822,-1.8871120228,2.2724430937,,,
0.8203125000,13,-1.9421432231,0.9045951687,-2.2484156057,1.8235323387,,,
0.8222656250,13,-1.8825360101,0.8807589772,-2.5513036554,1.2181624181,,,
0.8242187500,13,-1.8099715454,0.9240868258,-2.7434043164,0.5933836969,,,
0.8261718750,13,-1.7261608279,1.0326259461,-2.7888069199,0.0903820099,,,
0.8281250000,13,-1.6330046614,1.1997027388,-2.6736841908,-0.1839871598,,,
0.8300781250,13,-1.5325601859,1.4143870900,-2.4084783447,-0.1862488349,,,
0.8320312500,13,-1.4270046753,1.6622538712,-2.0263104112,0.0520166313,,,
0.8339843750,13,-1.3185972360,1.9263885218,-1.5778603572,0.4330716254,,,
0.8359375000,13,-1.2096390757,2.1885665942,-1.1235152577,0.8200513727,,,
0.8378906250,13,-1.1024330403,2.4305250053,-0.7240082645,1.0747157497,,,
0.8398437500,13,-0.9992431252,2.6352363467,-0.4310061733,1.0955740191,,,
0.8417968750,13,-0.9022546723,2.7880973892,-0.2791113852,0.8459315247,,,
0.8437500000,13,-0.8135359478,2.8779488994,-0.2805237468,0.3641695321,,,
0.8457031250,13,-0.7350017746,2.8978556523,-0.4231934522,-0.2465611586,,,
0.8476562500,13,-0.6683798568,2.8455922399,-0.6727524320,-0.8464100419,,,
0.8496093750,13,-0.6151803842,2.7238007958,-0.9779231262,-1.2969688491,,,
0.8515625000,13,-0.5766694511,2.5398096293,-1.2785619119,-1.4990336855,,,
0.8535156250,13,-0.5538467533,2.3051254107,-1.5150840896,-1.4196393886,,,
0.8554687500,13,-0.5474279555,2.0346343113,-1.6378021474,-1.1009581431,,,
0.8574218750,13,-0.5578320360,1.7455677968,-1.6147225230,-0.6486246762,,,
0.8593750000,13,-0.5851738322,1.4563051832,-1.4365861863,-0.2026887361,,,
0.8613281250,13,-0.6292619160,1.1850964482,-1.1183676517,0.1008432961,,,
0.8632812500,13,-0.6896018378,0.9487943486,-0.6969986541,0.1673367679,,,
0.8652343750,13,-0.7654046810,0.7616842476,-0.2256707534,-0.0305038886,,,
0.8671875000,13,-0.8556007782,0.6344932390,0.2343960106,-0.4451458738,,,
0.8691406250,13,-0.9588583481,0.5736476533,0.6234366076,-0.9672693808,,,
0.8710937500,13,-1.0736067283,0.5808307104,0.8923998081,-1.4557651313,,,
0.8730468750,13,-1.1980637952,0.6528711494,1.0105404229,-1.7764662336,,,
0.8750000000,14,-1.3302670931,0.7819705904,0.9701626979,-1.8389984936,,,
0.8769531250,14,-1.4681081257,0.9562537576,0.7877762830,-1.6216487889,,,
0.8789062500,14,-1.6093692103,1.1606031806,0.5014849383,-1.1774348182,,,
0.8808593750,14,-1.7517622498,1.3777201523,0.1650148997,-0.6197114989,,,
0.8828125000,14,-1.8929687428,1.5893379440,-0.1606868029,-0.0912575086,,,
0.8847656250,14,-2.0306803324,1.7775026599,-0.4169753027,0.2746870905,,,
0.8867187500,14,-2.1626391818,1.9258323976,-0.5566687319,0.3907553799,,,
0.8886718750,14,-2.2866774723,2.0206668915,-0.5514199599,0.2392038406,,,
0.8906250000,14,-2.4007553301,2.0520274556,-0.3961509376,-0.1234290101,,,
0.8925781250,14,-2.5029965181,2.0143202679,-0.1098588865,-0.5820304157,,,
0.8945312500,14,-2.5917212692,1.9067339371,0.2673313031,-0.9946805248,,,
0.8964843750,14,-2.6654756841,1.7333036119,0.6804094098,-1.2317703599,,,
0.8984375000,14,-2.7230571803,1.5026371429,1.0680447035,-1.2117474109,,,
0.9003906250,14,-2.7635355466,1.2273223789,1.3721392424,-0.9236899070,,,
0.9023437500,14,-2.7862692336,0.9230569069,1.5468816542,-0.4305206916,,,
0.9042968750,14,-2.7909165956,0.6075609094,1.5658911899,0.1480222479,,,
0.9062500000,14,-2.7774418870,0.2993489279,1.4263392704,0.6679934029,,,
0.9082031250,14,-2.7461159084,0.0164461664,1.1494064957,1.0004907596,,,
0.9101562500,14,-2.6975112897,-0.2248611659,0.7770038378,1.0667946094,,,
0.9121093750,14,-2.6324924953,-0.4111543471,0.3652685926,0.8597654868,,,
0.9140625000,14,-2.5522007238,-0.5328107935,-0.0241520066,0.4456384107,,,
0.9160156250,14,-2.4580339683,-0.5846681265,-0.3336720430,-0.0542767453,,,
0.9179687500,14,-2.3516225857,-0.5663773644,-0.5187024373,-0.4969719481,,,
0.9199218750,14,-2.2348008026,-0.4824206251,-0.5545591681,-0.7570459520,,,
0.9218750000,14,-2.1095746572,-0.3417921204,-0.4402684038,-0.7611641008,,,
0.9238281250,14,-1.9780869387,-0.1573647012,-0.1986760946,-0.5082276810,,,
0.9257812500,14,-1.8425797366,0.0550138580,0.1271548144,-0.0697242975,,,
0.9277343750,14,-1.7053552578,0.2776318046,0.4806981521,0.4298372713,,,
0.9296875000,14,-1.5687355955,0.4921540994,0.8008170832,0.8470458326,,,
0.9316406250,14,-1.4350221558,0.6809063236,1.0313363667,1.0589093289,,,
0.9335937500,14,-1.3064554511,0.8281122603,1.1298431094,0.9966022213,,,
0.9355468750,14,-1.1851759662,0.9209988366,1.0743449714,0.6643892508,,,
0.9375000000,15,-1.0731867792,0.9506913659,0.8667484914,0.1385386313,,,
0.9394531250,15,-0.9723185953,0.9128366509,0.5326154745,-0.4534781773,,,
0.9414062500,15,-0.8841978024,0.8079104886,0.1172350982,-0.9678003039,,,
0.9433593750,15,-0.8102181100,0.6411881241,-0.3213767637,-1.2834645690,,,
0.9453125000,15,-0.7515162671,0.4223797054,-0.7214608981,-1.3353997060,,,
0.9472656250,15,-0.7089522840,0.1649561541,-1.0270818708,-1.1320863999,,,
0.9492187500,15,-0.6830945046,-0.1147875465,-1.1967890626,-0.7530446355,,,
0.9511718750,15,-0.6742097907,-0.3988663307,-1.2100228977,-0.3268387070,,,
0.9531250000,15,-0.6822589892,-0.6688572272,-1.0702687338,0.0043701116,,,
0.9550781250,15,-0.7068977625,-0.9071824177,-0.8044674418,0.1240062532,,,
0.9570312500,15,-0.7474827672,-1.0983337104,-0.4587747342,-0.0267429150,,,
0.9589843750,15,-0.8030830721,-1.2299530435,-0.0913299931,-0.4325762221,,,
0.9609375000,15,-0.8724966169,-1.2936936732,0.2368388783,-1.0080375931,,,
0.9628906250,15,-0.9542714216,-1.2858019948,0.4713577456,-1.6207018643,,,
0.9648437500,15,-1.0467311763,-1.2073794232,0.5730092094,-2.1272351417,,,
0.9667968750,15,-1.1480047637,-1.0643060715,0.5238716777,-2.4124487963,,,
0.9687500000,15,-1.2560591950,-0.8668315473,0.3301381800,-2.4206456881,,,
0.9707031250,15,-1.3687353851,-0.6288613999,0.0211757254,-2.1706696300,,,
0.9726562500,15,-1.4837861393,-0.3669889726,-0.3550284227,-1.7505354819,,,
0.9746093750,15,-1.5989156852,-0.0993401691,-0.7393244047,-1.2931135147,,,
0.9765625000,15,-1.7118200601,0.1556883137,-1.0705998831,-0.9395340306,,,
0.9785156250,15,-1.8202276440,0.3807093048,-1.2952897327,-0.8003436119,,,
0.9804687500,15,-1.9219391299,0.5605547556,-1.3757141731,-0.9250604435,,,
0.9824218750,15,-2.0148662310,0.6833302729,-1.2959466734,-1.2884740645,,,
0.9843750000,15,-2.0970684467,0.7412410587,-1.0642976860,-1.7974455953,,,
0.9863281250,15,-2.1667872441,0.7311316727,-0.7120273494,-2.3163457400,,,
0.9882812500,15,-2.2224770551,0.6547019843,-0.2884876359,-2.7041596272,,,
0.9902343750,15,-2.2628325485,0.5183842685,0.1465494666,-2.8530898204,,,
0.9921875000,15,-2.2868116966,0.3328900240,0.5321828822,-2.7180780314,,,
0.9941406250,15,-2.2936542344,0.1124581283,0.8158454612,-2.3291547692,,,
0.9960937500,15,-2.2828951878,-0.1261432294,0.9614652747,-1.7832323003,,,
0.9980468750,15,-2.2543732323,-0.3647912283,0.9550541542,-1.2175900590,,,
1.0000000000,16,-2.2082337379,-0.5852777802,0.8068531766,-0.7723189861,,,
1.0019531250,16,-2.1449264448,-0.7705850481,0.5497010892,-0.5520171022,,,
1.0039062500,16,-2.0651978116,-0.9060781590,0.2338799828,-0.5972336322,,,
1.0058593750,16,-1.9700781699,-0.9805319248,-0.0807587768,-0.8734870257,,,
1.0078125000,16,-1.8608639094,-0.9869199601,-0.3341617189,-1.2808655550,,,
1.0097656250,16,-1.7390950053,-0.9229111526,-0.4754743259,-1.6815779352,,,
1.0117187500,16,-1.6065282828,-0.7910388521,-0.4710114768,-1.9379016889,,,
1.0136718750,16,-1.4651068845,-0.5985309620,-0.3095555860,-1.9501271208,,,
1.0156250000,16,-1.3169264768,-0.3568127661,-0.0041569641,-1.6840958410,,,
1.0175781250,16,-1.1641987867,-0.0807171438,0.4098442861,-1.1807844816,,,
1.0195312500,16,-1.0092131066,0.2125427690,0.8802670145,-0.5453050262,,,
1.0214843750,16,-0.8542964412,0.5045668507,1.3461600229,0.0816656178,,,
1.0234375000,16,-0.7017729956,0.7770440032,1.7472385069,0.5621986200,,,
1.0253906250,16,-0.5539237113,1.0130219352,2.0332164539,0.7986705102,,,
1.0273437500,16,-0.4129465606,1.1980821927,2.1715817225,0.7602735955,,,
1.0292968750,16,-0.2809182938,1.3213385130,2.1526030853,0.4912159791,,,
1.0312500000,16,-0.1597583084,1.3761889031,1.9907896528,0.0983659614,,,
1.0332031250,16,-0.0511952739,1.3607690127,1.7225756554,-0.2782707568,,,
1.0351562500,16,0.0432629049,1.2780752052,1.4005914746,-0.5041476917,,,
1.0371093750,16,0.1223552593,1.1357487602,1.0854135177,-0.4872678528,,,
1.0390625000,16,0.1850896046,0.9455362731,0.8360782084,-0.2036004516,,,
1.0410156250,16,0.2307596829,0.7224638954,0.7008378518,0.2961436944,,,
1.0429687500,16,0.2589573004,0.4837830153,0.7095984465,0.9002366516,,,
1.0449218750,16,0.2695792459,0.2477609152,0.8692175379,1.4663977946,,,
1.0468750000,16,0.2628288715,0.0324007523,1.1623947214,1.8606501325,,,
1.0488281250,16,0.2392123056,-0.1458198619,1.5503278228,1.9939203691,,,
1.0507812500,16,0.1995293665,-0.2731037068,1.9787212381,1.8463527226,,,
1.0527343750,16,0.1448593350,-0.3393016768,2.3862107873,1.4726736302,,,
1.0546875000,16,0.0765418351,-0.3386258878,2.7138930310,0.9871376509,,,
1.0566406250,16,-0.0038468415,-0.2700584268,2.9144749590,0.5321808579,,,
1.0585937500,16,-0.0945215538,-0.1374272276,2.9596190662,0.2393730925,,,
1.0605468750,16,-0.1935197836,0.0508562300,2.8443398937,0.1933708969,,,
1.0625000000,17,-0.2987362122,0.2823791178,2.5877673403,0.4087503374,,,
1.0644531250,17,-0.4079597944,0.5415887667,2.2301579250,0.8260687335,,,
1.0664062500,17,-0.5189126821,0.8108734173,1.8266195628,1.3282340397,,,
1.0683593750,17,-0.6292903140,1.0717868604,1.4385272800,1.7726947142,,,
1.0703125000,17,-0.7368019713,1.3063315768,1.1239669259,2.0306267967,,,
1.0722656250,17,-0.8392110875,1.4982109078,0.9286953086,2.0223770174,,,
1.0742187500,17,-0.9343746071,1.6339629459,0.8790247274,1.7394466972,,,
1.0761718750,17,-1.0202807043,1.7038970820,0.9777401179,1.2469898099,,,
1.0781250000,17,-1.0950842003,1.7027679072,1.2036846594,0.6661389185,,,
1.0800781250,17,-1.1571390593,1.6301394800,1.5150782935,0.1410011478,,,
1.0820312500,17,-1.2050273945,1.4904145626,1.8560521595,-0.2006322769,,,
1.0839843750,17,-1.2375844752,1.2925267899,2.1653810409,-0.2820965579,,,
1.0859375000,17,-1.2539192979,1.0493172412,2.3860535426,-0.0986454486,,,
1.0878906250,17,-1.2534303606,0.7766388884,2.4741892250,0.2814714245,,,
1.0898437500,17,-1.2358163644,0.4922513727,2.4059136139,0.7359391633,,,
1.0917968750,17,-1.2010816539,0.2145831799,2.1811200657,1.1221256620,,,
1.0937500000,17,-1.1495363031,-0.0385524690,1.8235323387,1.3163956500,,,
1.0957031250,17,-1.0817908424,-0.2511984675,1.3770578917,1.2482137908,,,
1.0976562500,17,-0.9987457217,-0.4103648892,0.8989996613,0.9196881186,,,
1.0996093750,17,-0.9015756919,-0.5069327923,0.4511833611,0.4051955240,,,
1.1015625000,17,-0.7917093795,-0.5362877439,0.0903820099,-0.1688100058,,,
1.1035156250,17,-0.6708044113,-0.4986388894,-0.1404711557,-0.6582742734,,,
1.1054687500,17,-0.5407185251,-0.3990013246,-0.2189130296,-0.9408575268,,,
1.1074218750,17,-0.4034771709,-0.2468430040,-0.1463918185,-0.9493135052,,,
1.1093750000,17,-0.2612381721,-0.0554208172,0.0520166313,-0.6897861214,,,
1.1113281250,17,-0.1162540634,0.1591478641,0.3315728894,-0.2400104896,,,
1.1132812500,17,0.0291672348,0.3790134127,0.6349006603,0.2720875484,,,
1.1152343750,17,0.1727027157,0.5858432655,0.9009814247,0.7035272470,,,
1.1171875000,17,0.3120548556,0.7621052039,1.0747157497,0.9355137218,,,
1.1191406250,17,0.4449917410,0.8922950993,1.1155617543,0.9060284047,,,
1.1210937500,17,0.5693860533,0.9640234965,1.0039049621,0.6268367912,,,
1.1230468750,17,0.6832522260,0.9688852529,0.7441671244,0.1802520417,,,
1.1250000000,18,0.7847811254,0.9030515780,0.3641695321,-0.3034584827,,,
1.1269531250,18,0.8723716473,0.7675431757,-0.0891502772,-0.6818312697,,,
1.1289062500,18,0.9446586763,0.5681654275,-0.5570015211,-0.8393285912,,,
1.1308593750,18,1.0005369179,0.3151101245,-0.9778518666,-0.7191014819,,,
1.1328125000,18,1.0391801871,0.0222515038,-1.2969688491,-0.3386875992,,,
1.1347656250,18,1.0600558148,-0.2938143342,-1.4749050983,0.2146594220,,,
1.1367187500,18,1.0629339198,-0.6149196599,-1.4936059460,0.8077302793,,,
1.1386718750,18,1.0478913854,-0.9225848049,-1.3591883035,1.2976994013,,,
1.1406250000,18,1.0153104690,-1.1992994843,-1.1009581431,1.5710854567,,,
1.1425781250,18,0.9658720706,-1.4297364149,-0.7668197588,1.5746567641,,,
1.1445312500,18,0.9005437778,-1.6018126178,-0.4157919638,1.3298131764,,,
1.1464843750,18,0.8205628957,-1.7075244129,-0.1087969680,0.9265047182,,,
1.1484375000,18,0.7274147604,-1.7434978973,0.1008432961,0.4983557018,,,
1.1503906250,18,0.6228067146,-1.7112165365,0.1757230900,0.1858141336,,,
1.1523437500,18,0.5086382012,-1.6169100155,0.1001857359,0.0974281735,,,
1.1542968750,18,0.3869674993,-1.4711121186,-0.1172350887,0.2798647621,,,
1.1562500000,18,0.2599756842,-1.2879184845,-0.4451458738,0.7048895721,,,
1.1582031250,18,0.1299284431,-1.0839960140,-0.8341883613,1.2768788391,,,
1.1601562500,18,-0.0008635859,-0.8774130242,-1.2247367170,1.8588064232,,,
1.1621093750,18,-0.1300852554,-0.6863717437,-1.5561978510,2.3095859006,,,
1.1640625000,18,-0.2554574247,-0.5279315527,-1.7764662336,2.5225353348,,,
1.1660156250,18,-0.3747768388,-0.4168120175,-1.8500604655,2.4544246030,,,
1.1679687500,18,-0.4859546744,-0.3643592040,-1.7636741695,2.1371460816,,,
1.1699218750,18,-0.5870530756,-0.3777473689,-1.5282764807,1.6688117907,,,
1.1718750000,18,-0.6763190413,-0.4594717137,-1.1774348182,1.1867185475,,,
1.1738281250,18,-0.7522150704,-0.6071675882,-0.7621209966,0.8295919625,,,
1.1757812500,18,-0.8134460281,-0.8137687668,-0.3428094650,0.6994582925,,,
1.1777343750,18,-0.8589817634,-1.0679937759,0.0199017958,0.8335949820,,,
1.1796875000,18,-0.8880750805,-1.3551263727,0.2746870905,1.1942482732,,,
1.1816406250,18,-0.9002747516,-1.6580357655,0.3874423306,1.6789366463,,,
1.1835937500,18,-0.8954333414,-1.9583654441,0.3465499536,2.1485166978,,,
1.1855468750,18,-0.8737097073,-2.2378077346,0.1646396605,2.4653197038,,,
1.1875000000,19,-0.8355661309,-2.4793752101,-0.1234290101,2.5309068373,,,
1.1894531250,19,-0.7817601324,-2.6685803107,-0.4660477697,2.3130953162,,,
1.1914062500,19,-0.7133311091,-2.7944409259,-0.8029503439,1.8548480639,,,
1.1933593750,19,-0.6315820347,-2.8502418262,-1.0746524480,1.2625899337,,,
1.1953125000,19,-0.5380565372,-2.8339988575,-1.2317703599,0.6771519036,,,
1.1972656250,19,-0.4345117594,-2.7485935381,-1.2427663830,0.2353056138,,,
1.1992187500,19,-0.3228874747,-2.6015686801,-1.0989145127,0.0324293386,,,
1.2011718750,19,-0.2052720016,-2.4045992957,-0.8157125883,0.0965362187,,,
1.2031250000,19,-0.0838655116,-2.1726756896,-0.4305206916,0.3807813663,,,
1.2050781250,19,0.0390586252,-1.9230557115,0.0032066558,0.7764998036,,,
1.2070312500,19,0.1611937814,-1.6740592340,0.4241964108,1.1432001753,,,
1.2089843750,19,0.2802405993,-1.4437889283,0.7728522935,1.3472919950,,,
1.2109375000,19,0.3939473964,-1.2488665435,1.0004907596,1.2989304814,,,
1.2128906250,19,0.5001497385,-1.1032728179,1.0768793617,0.9768788762,,,
1.2148437500,19,0.5968084909,-1.0173719192,0.9949035997,0.4345721175,,,
1.2167968750,19,0.6820456783,-0.9971884460,0.7716356038,-0.2142821538,,,
1.2187500000,19,0.7541775274,-1.0439874057,0.4456384107,-0.8266210987,,,
1.2207031250,19,0.8117441131,-1.1541864606,0.0709259066,-1.2689913149,,,
1.2226562500,19,0.8535350881,-1.3196065582,-0.2914806067,-1.4538837276,,,
1.2246093750,19,0.8786110466,-1.5280434680,-0.5830839475,-1.3634825600,,,
1.2265625000,19,0.8863201473,-1.7641203663,-0.7570459520,-1.0543215730,,,
1.2285156250,19,0.8763097044,-2.0103620125,-0.7855027967,-0.6415734346,,,
1.2304687500,19,0.8485325439,-2.2484156057,-0.6639212300,-0.2672799340,,,
1.2324218750,19,0.8032480136,-2.4603331840,-0.4118171158,-0.0612319752,,,
1.2343750000,19,0.7410176286,-2.6298261328,-0.0697242975,-0.1052226362,,,
1.2363281250,19,0.6626954298,-2.7434043164,0.3071141529,-0.4104719780,,,
1.2382812500,19,0.5694132222,-2.7913203880,0.6573497132,-0.9144121527,,,
1.2402343750,19,0.4625609526,-2.7682534229,0.9230871417,-1.4977151132,,,
1.2421875000,19,0.3437625704,-2.6736841908,1.0589093289,-2.0168971580,,,
1.2441406250,19,0.2148477929,-2.5119358920,1.0389625699,-2.3435652127,,,
1.2460937500,19,0.0778202702,-2.2918775031,0.8609986368,-2.3995492530,,,
1.2480468750,19,-0.0651772928,-2.0263104112,0.5467440051,-2.1782925571,,,
1.2500000000,20,-0.2119004478,-1.7310810939,0.1385386313,-1.7466375845,,,
1.2519531250,20,-0.3600420933,-1.4239817108,-0.3072323019,-1.2265180427,,,
1.2539062500,20,-0.5072726602,-1.1235152577,-0.7288907647,-0.7615746042,,,
1.2558593750,20,-0.6512806894,-0.8476113804,-1.0690393040,-0.4778435060,,,
1.2578125000,20,-0.7898130897,-0.6123823843,-1.2834645690,-0.4492915060,,,
1.2597656250,20,-0.9207143736,-0.4310061733,-1.3479843525,-0.6776422336,,,
1.2617187500,20,-1.0419641808,-0.3128139989,-1.2621718839,-1.0920219385,,,
1.2636718750,20,-1.1517124365,-0.2626466188,-1.0493775132,-1.5685205631,,,
1.2656250000,20,-1.2483115247,-0.2805237468,-0.7530446355,-1.9643056971,,,
1.2675781250,20,-1.3303449173,-0.3616498276,-0.4298939132,-2.1569383129,,,
1.2695312500,20,-1.3966517551,-0.4967557180,-0.1410376407,-2.0781133827,,,
1.2714843750,20,-1.4463469512,-0.6727524320,0.0575915004,-1.7325763225,,,
1.2734375000,20,-1.4788364654,-0.8736513443,0.1240062532,-1.1970289602,,,
1.2753906250,20,-1.4938274818,-1.0816866677,0.0367595639,-0.5993228998,,,
1.2773437500,20,-1.4913333118,-1.2785619119,-0.2016591285,-0.0836407106,,,
1.2792968750,20,-1.4716729365,-1.4467333890,-0.5651553690,0.2287943676,,,
1.2812500000,20,-1.4354651966,-1.5706412435,-1.0080375931,0.2727140524,,,
1.2832031250,20,-1.3836177318,-1.6378021474,-1.4720775022,0.0564650256,,,
1.2851562500,20,-1.3173108646,-1.6396874449,-1.8955235092,-0.3405046063,,,
1.2871093750,20,-1.2379767081,-1.5723254942,-2.2226636531,-0.7896413789,,,
1.2890625000,20,-1.1472738665,-1.4365861863,-2.4124487963,-1.1487345134,,,
1.2910156250,20,-1.0470581706,-1.2381277823,-2.4448332764,-1.3010986638,,,
1.2929687500,20,-0.9393499597,-0.9870097606,-2.3238457017,-1.1877506038,,,
1.2949218750,20,-0.8262984842,-0.6969986541,-2.0769118627,-0.8237593404,,,
1.2968750000,20,-0.7101440528,-0.3846152674,-1.7505354819,-0.2942868426,,,
1.2988281250,20,-0.5931785849,-0.0679896980,-1.4030097954,0.2685970994,,,
1.3007812500,20,-0.4777052620,0.2343960106,-1.0952954133,0.7219729921,,,
1.3027343750,20,-0.3659979822,0.5049899218,-0.8814855041,0.9511215819,,,
1.3046875000,20,-0.2602613298,0.7283875767,-0.8003436119,0.9008643345,,,
1.3066406250,20,-0.1625917601,0.8923998081,-0.8692323300,0.5906059079,,,
1.3085937500,20,-0.0749406786,0.9888965485,-1.0813786509,0.1089566826,,,
1.3105468750,20,0.0009199371,1.0143678055,-1.4069020908,-0.4105902913,,,
1.3125000000,21,0.0634287720,0.9701626979,-1.7974455953,-0.8262613606,,,
1.3144531250,21,0.1112627180,0.8623898987,-2.1936880647,-1.0268516736,,,
1.3164062500,21,0.1433602436,0.7014864365,-2.5345684872,-0.9621745275,,,
1.3183593750,21,0.1589401826,0.5014849383,-2.7667850594,-0.6567656758,,,
1.3203125000,21,0.1575156101,0.2790304211,-2.8530898204,-0.2030871275,,,
1.3222656250,21,0.1389025635,0.0522152040,-2.7780869107,0.2639062549,,,
1.3242187500,21,0.1032234571,-0.1606868029,-2.5506313712,0.6038659590,,,
1.3261718750,21,0.0509051274,-0.3424981637,-2.2024548568,0.7096459991,,,
1.3281250000,21,-0.0173284533,-0.4783392019,-1.7832323003,0.5368167826,,,
1.3300781250,21,-0.1004686706,-0.5566687319,-1.3528578782,0.1160064092,,,
1.3320312500,21,-0.1972397480,-0.5700916540,-0.9721332780,-0.4553145219,,,
1.3339843750,21,-0.3061209091,-0.5158770920,-0.6933185359,-1.0393547422,,,
1.3359375000,21,-0.4253728324,-0.3961509376,-0.5520171022,-1.4955637468,,,
1.3378906250,21,-0.5530679369,-0.2177493690,-0.5616589556,-1.7189402808,,,
1.3398437500,21,-0.6871239678,0.0082564431,-0.7114409121,-1.6685906676,,,
1.3417968750,21,-0.8253402936,0.2673313031,-0.9680447771,-1.3787120683,,,
1.3437500000,21,-0.9654362809,0.5424888696,-1.2808655550,-0.9489926046,,,
1.3457031250,21,-1.1050910731,0.8154758170,-1.5899352021,-0.5170615323,,,
1.3476562500,21,-1.2419840778,1.0680447035,-1.8353075510,-0.2205422031,,,
1.3496093750,21,-1.3738354539,1.2832267845,-1.9664424302,-0.1591101072,,,
1.3515625000,21,-1.4984458890,1.4465160121,-1.9501271208,-0.3669568692,,,
1.3535156250,21,-1.6137349713,1.5468816542,-1.7757010920,-0.8032090572,,,
1.3554687500,21,-1.7177774841,1.5775389170,-1.4567699787,-1.3629297270,,,
1.3574218750,21,-1.8088369870,1.5364238298,-1.0291415717,-1.9056894224,,,
1.3593750000,21,-1.8853960963,1.4263392704,-0.5453050262,-2.2938779901,,,
1.3613281250,21,-1.9461829348,1.2547619447,-0.0663128969,-2.4302587800,,,
1.3632812500,21,-1.9901932870,1.0333237724,0.3476698696,-2.2844743071,,,
1.3652343750,21,-2.0167080724,0.7770038378,0.6466782344,-1.9012403677,,,
1.3671875000,21,-2.0253058315,0.5030872444,0.7986705102,-1.3879840897,,,
1.3691406250,21,-2.0158700046,0.2299634679,0.7944602773,-0.8853150157,,,
1.3710937500,21,-1.9885908777,-0.0241520066,0.6490888928,-0.5284230870,,,
1.3730468750,21,-1.9439621596,-0.2424836305,0.3994251094,-0.4099838634,,,
1.3750000000,22,-1.8827722525,-0.4108610506,0.0983659614,-0.5547380276,,,
1.3769531250,22,-1.8060903662,-0.5187024373,-0.1934575559,-0.9127124465,,,
1.3789062500,22,-1.7152477220,-0.5597473215,-0.4171778551,-1.3729407621,,,
1.3808593750,22,-1.6118141732,-0.5324878506,-0.5249116410,-1.7939229721,,,
1.3828125000,22,-1.4975706525,-0.4402684038,-0.4872678528,-2.0424755980,,,
1.3847656250,22,-1.3744779295,-0.2910466330,-0.2979730145,-2.0303242251,,,
1.3867187500,22,-1.2446422238,-0.0968326072,0.0251066627,-1.7384087508,,,
1.3886718750,22,-1.1102782771,0.1271548144,0.4427058439,-1.2222390601,,,
1.3906250000,22,-0.9736705310,0.3635555387,0.9002366516,-0.5968321736,,,
1.3925781250,22,-0.8371330889,0.5940852623,1.3362549928,-0.0053578478,,,
1.3945312500,22,-0.7029691648,0.8008170832,1.6919981338,0.4199155345,,,
1.3964843750,22,-0.5734307280,0.9674383098,1.9205081508,0.5936728299,,,
1.3984375000,22,-0.4506790511,1.0803948142,1.9939203691,0.5007227646,,,
1.4003906250,22,-0.3367468509,1.1298431094,1.9077816995,0.1999388121,,,
1.4023437500,22,-0.2335026869,1.1103437460,1.6817263655,-0.1921077979,,,
1.4042968750,22,-0.1426182388,1.0212476568,1.3564038565,-0.5333351962,,,
1.4062500000,22,-0.0655390377,0.8667484914,0.9871376509,-0.6953344902,,,
1.4082031250,22,-0.0034591626,0.6555972755,0.6353024370,-0.5988086740,,,
1.4101562500,22,0.0426996546,0.4004992735,0.3587628922,-0.2355519177,,,
1.4121093750,22,0.0723041499,0.1172350982,0.2028632272,0.3290568075,,,
1.4140625000,22,0.0850205908,-0.1764326637,0.1933708969,0.9737313617,,,
1.4160156250,22,0.0808205900,-0.4619910815,0.3324734877,1.5542845456,,,
1.4179687500,22,0.0599815666,-0.7214608981,0.5984522198,1.9429187795,,,
1.4199218750,22,0.0230818471,-0.9386434126,0.9490828322,2.0630349561,,,
1.4218750000,22,-0.0290095076,-1.1002432968,1.3282340397,1.9100213158,,,
1.4238281250,22,-0.0951479725,-1.1967890626,1.6746356902,1.5523265372,,,
1.4257812500,22,-0.1739336565,-1.2232870106,1.9314507922,1.1125246154,,,
1.4277343750,22,-0.2637358784,-1.1795630741,2.0551603574,0.7335626087,,,
1.4296875000,22,-0.3627217885,-1.0702687338,2.0223770174,0.5394431118,,,
1.4316406250,22,-0.4688885366,-0.9045506094,1.8335259624,0.6011184175,,,
1.4335937500,22,-0.5800984213,-0.6954067799,1.5128196679,0.9169447859,,,
1.4355468750,22,-0.6941164066,-0.4587747342,1.1045301191,1.4130545599,,,
1.4375000000,23,-0.8086493471,-0.2124145663,0.6661389185,1.9635447878,,,
1.4394531250,23,-0.9213862372,0.0253346941,0.2594319352,2.4249497025,,,
1.4414062500,23,-1.0300387776,0.2368388783,-0.0590747099,2.6755494222,,,
1.4433593750,23,-1.1323815491,0.4064030658,-0.2468863844,2.6487415696,,,
1.4453125000,23,-1.2262910912,0.5213704739,-0.2820965579,2.3513294706,,,
1.4472656250,23,-1.3097831999,0.5730092094,-0.1667457854,1.8617143029,,,
1.4492187500,23,-1.3810477926,0.5571250357,0.0735498348,1.3084860844,,,
1.4511718750,23,-1.4384807283,0.4743574161,0.3936425677,0.8352802841,,,
1.4531250000,23,-1.4807120278,0.3301381800,0.7359391633,0.5615308290,,,
1.4550781250,23,-1.5066299973,0.1343156865,1.0394252021,0.5498747734,,,
1.4570312500,23,-1.5154008349,-0.0995293146,1.2492217852,0.7891407073,,,
1.4589843750,23,-1.5064833760,-0.3550284227,1.3251857777,1.1975817851,,,
1.4609375000,23,-1.4796387184,-0.6141650551,1.2482137908,1.6454656719,,,
1.4628906250,23,-1.4349345602,-0.8585291885,1.0232677470,1.9908284223,,,
1.4648437500,23,-1.3727441731,-1.0705998831,0.6786505134,2.1185913570,,,
1.4667968750,23,-1.2937400291,-1.2349661569,0.2616441652,1.9723182103,,,
1.4687500000,23,-1.1988821934,-1.3394010772,-0.1688100058,1.5699068231,,,
1.4707031250,23,-1.0894016848,-1.3757141731,-0.5512498488,0.9989126594,,,
1.4726562500,23,-0.9667790959,-1.3403227267,-0.8312259575,0.3927836879,,,
1.4746093750,23,-0.8327188480,-1.2345021066,-0.9697458223,-0.1054822244,,,
1.4765625000,23,-0.6891195296,-1.0642976860,-0.9493135052,-0.3822991487,,,
1.4785156250,23,-0.5380408392,-0.8401044868,-0.7766243111,-0.3843980289,,,
1.4804687500,23,-0.3816677109,-0.5759438595,-0.4814949069,-0.1332066978,,,
1.4824218750,23,-0.2222722508,-0.2884876359,-0.1121956767,0.2812341179,,,
1.4843750000,23,-0.0621741496,0.0041022005,0.2720875484,0.7251494037,,,
1.4863281250,23,0.0962997337,0.2834374180,0.6104881539,1.0578827330,,,
1.4882812500,23,0.2508559108,0.5321828822,0.8499513595,1.1706213960,,,
1.4902343750,23,0.3992742158,0.7352621393,0.9535061982,1.0163787666,,,
1.4921875000,23,0.5394464697,0.8809051719,0.9060284047,0.6230151687,,,
1.4941406250,23,0.6694131815,0.9614652747,0.7165965835,0.0857272962,,,
1.4960937500,23,0.7873976429,0.9739480932,0.4170746667,-0.4589365329,,,
1.4980468750,23,0.8918368196,0.9202159436,0.0571414645,-0.8704146121,,,
1.5000000000,24,0.9814084992,0.8068531766,-0.3034584827,-1.0425910551,,,
1.5019531250,24,1.0550542191,0.6447019828,-0.6042357218,-0.9328360400,,,
1.5039062500,24,1.1119975750,0.4481010226,-0.7933965339,-0.5736684009,,,
1.5058593750,24,1.1517575871,0.2338799828,-0.8359328803,-0.0638443703,,,
1.5078125000,24,1.1741568928,0.0201801873,-0.7191014819,0.4586852616,,,
1.5097656250,24,1.1793246202,-0.1748164844,-0.4544384992,0.8545381862,,,
1.5117187500,24,1.1676938934,-0.3341617189,-0.0759958640,1.0210345498,,,
1.5136718750,24,1.1399940135,-0.4433290707,0.3649262091,0.9202511379,,,
1.5156250000,24,1.0972374518,-0.4912335635,0.8077302793,0.5893078056,,,
1.5175781250,24,1.0407018835,-0.4710114768,1.1919180886,0.1300679869,,,
1.5195312500,24,0.9719075762,-0.3805059257,1.4664690011,-0.3189227253,,,
1.5214843750,24,0.8925905298,-0.2224243574,1.5977399627,-0.6205677597,,,
1.5234375000,24,0.8046718379,-0.0041569641,1.5746567641,-0.6769683658,,,
1.5253906250,24,0.7102238070,0.2627313388,1.4103882944,-0.4564425514,,,
1.5273437500,24,0.6114334280,0.5632999619,1.1402432779,-0.0024072855,,,
1.5292968750,24,0.5105638384,0.8802670145,0.8161173572,0.5783122745,,,
1.5312500000,24,0.4099144509,1.1952068865,0.4983557018,1.1445444315,,,
1.5332031250,24,0.3117804465,1.4898275472,0.2462988652,1.5592406041,,,
1.5351562500,24,0.2184123419,1.7472385069,0.1089847139,1.7268117212,,,
1.5371093750,24,0.1319763385,1.9531210395,0.1174549416,1.6191007144,,,
1.5390625000,24,0.0545161477,2.0967190811,0.2798647621,1.2828749790,,,
1.5410156250,24,-0.0120830380,2.1715817225,0.5801577627,0.8267874945,,,
1.5429687500,24,-0.0661277984,2.1760055366,0.9805126069,0.3913822881,,,
1.5449218750,24,-0.1061463808,2.1131459128,1.4271807833,0.1103669150,,,
1.5468750000,24,-0.1309147125,1.9907896528,1.8588064232,0.0737680120,,,
1.5488281250,24,-0.1394780759,1.8208047001,2.2159326036,0.3030698024,,,
1.5507812500,24,-0.1311680668,1.6183053944,2.4502137454,0.7451511580,,,
1.5527343750,24,-0.1056145375,1.4005914746,2.5318994836,1.2866845867,,,
1.5546875000,24,-0.0627523168,1.1859348344,2.4544246030,1.7850523771,,,
1.5566406250,24,-0.0028225882,0.9922986490,2.2353903667,2.1073081244,,,
1.5585937500,24,0.0736310971,0.8360782084,1.9137846104,2.1665067036,,,
1.5605468750,24,0.1657721039,0.7309512769,1.5438737942,1.9454468072,,,
1.5625000000,25,0.2724851298,0.6869181620,1.1867185475,1.5013198216,,,
1.5644531250,25,0.3923955035,0.7095984465,0.9006343794,0.9499916197,,,
1.5664062500,25,0.5238930265,0.7998334366,0.7320835075,0.4342256556,,,
1.5683593750,25,0.6651599411,0.9536220638,0.7084165880,0.0845567503,,,
1.5703125000,25,0.8142025350,1.1623947214,0.8335949820,-0.0164610272,,,
1.5722656250,25,0.9688858290,1.4136059523,1.0875599374,0.1431660781,,,
1.5742187500,25,1.1269707411,1.6916046697,1.4293470197,0.5016525506,,,
1.5761718750,25,1.2861530755,1.9787212381,1.8034607637,0.9404569384,,,
1.5781250000,25,1.4441036551,2.2564956184,2.1485166978,1.3168811607,,,
1.5800781250,25,1.5985088940,2.5069609443,2.4068047200,1.5033103689,,,
1.5820312500,25,1.7471110995,2.7138930310,2.5332842755,1.4223377835,,,
1.5839843750,25,1.8877477994,2.8639386912,2.5026102646,1.0681465584,,,
1.5859375000,25,2.0183894046,2.9475441850,2.3130953162,0.5082870981,,,
1.5878906250,25,2.1371745480,2.9596190662,1.9869912128,-0.1346388774,,,
1.5898437500,25,2.2424424820,2.8998891375,1.5670455506,-0.7163694038,,,
1.5917968750,25,2.3327619661,2.7729139083,1.1098698439,-1.1102988372,,,
1.5937500000,25,2.4069561396,2.5877673403,0.6771519036,-1.2419463750,,,
1.5957031250,25,2.4641229440,2.3574041474,0.3260810615,-1.1091317801,,,
1.5976562500,25,2.5036507375,2.0977558417,0.1004774012,-0.7823308482,,,
1.5996093750,25,2.5252288278,1.8266195628,0.0240064843,-0.3851153420,,,
1.6015625000,25,2.5288527400,1.5624171768,0.0965362187,-0.0600403910,,,
1.6035156250,25,2.5148241263,1.3229111765,0.2942030938,0.0706692243,,,
1.6054687500,25,2.4837453199,1.1239669259,0.5731772424,-0.0611429708,,,
1.6074218750,25,2.4365086282,0.9784475608,0.8765396608,-0.4506516390,,,
1.6093750000,25,2.3742805529,0.8953186036,1.1432001753,-1.0211462797,,,
1.6113281250,25,2.2984812136,0.8790247274,1.3174668731,-1.6448394780,,,
1.6132812500,25,2.2107593353,0.9291821267,1.3577762390,-2.1776857542,,,
1.6152343750,25,2.1129632374,1.0406079384,1.2432239556,-2.4986700187,,,
1.6171875000,25,2.0071083324,1.2036846594,0.9768788762,-2.5427995283,,,
1.6191406250,25,1.8953417042,1.4050341392,0.5853637134,-2.3187587813,,,
1.6210937500,25,1.7799043854,1.6284541419,0.1147674604,-1.9063900609,,,
1.6230468750,25,1.6630919942,1.8560521595,-0.3764740858,-1.4346913568,,,
1.6250000000,26,1.5472144212,2.0694974039,-0.8266210987,-1.0463628150,,,
1.6269531250,26,1.4345552709,2.2513036612,-1.1801876272,-0.8586193237,,,
1.6289062500,26,1.3273317687,2.3860535426,-1.3965262272,-0.9310099903,,,
1.6308593750,26,1.2276558353,2.4614787481,-1.4561025052,-1.2490646794,,,
1.6328125000,26,1.1374970110,2.4693210022,-1.3634825600,-1.7282498578,,,
1.6347656250,26,1.0586478771,2.4059136139,-1.1465682886,-2.2371496105,,,
1.6367187500,26,0.9926925822,2.2724430937,-0.8521999235,-2.6335184431,,,
1.6386718750,26,0.9409790232,2.0748725711,-0.5388109869,-2.8033245055,,,
1.6406250000,26,0.9045951687,1.8235323387,-0.2672799340,-2.6920820881,,,
1.6425781250,26,0.8843499388,1.5324060627,-0.0914036220,-2.3198853194,,,
1.6445312500,26,0.8807589772,1.2181624181,-0.0494766298,-1.7760218153,,,
1.6464843750,26,0.8940355635,0.8989996613,-0.1582881971,-1.1946413725,,,
1.6484375000,26,0.9240868258,0.5933836969,-0.4104719780,-0.7181468688,,,
1.6503906250,26,0.9705153198,0.3187676202,-0.7756215696,-0.4583393496,,,
1.6523437500,26,1.0326259461,0.0903820099,-1.2049982191,-0.4659646451,,,
1.6542968750,26,1.1094380853,-0.0798196876,-1.6390975926,-0.7170061241,,,
1.6562500000,26,1.1997027388,-0.1839871598,-2.0168971580,-1.1194784628,,,
1.6582031250,26,1.3019243734,-0.2189130296,-2.2853439475,-1.5388584979,,,
1.6601562500,26,1.4143870900,-0.1862488349,-2.4076050069,-1.8351812874,,,
1.6621093750,26,1.5351846550,-0.0923821404,-2.3687955346,-1.9016323615,,,
1.6640625000,26,1.6622538712,0.0520166313,-2.1782925571,-1.6940570431,,,
1.6660156250,26,1.7934107029,0.2327460297,-1.8682737854,-1.2432970536,,,
1.6679687500,26,1.9263885218,0.4330716254,-1.4887092262,-0.6469711496,,,
1.6699218750,26,2.0588778059,0.6349006603,-1.0995855998,-0.0429503230,,,
1.6718750000,26,2.1885665942,0.8200513727,-0.7615746042,0.4282048889,,,
1.6738281250,26,2.3131809903,0.9715284641,-0.5265984193,0.6615522253,,,
1.6757812500,26,2.4305250053,1.0747157497,-0.4297618347,0.6163236040,,,
1.6777343750,26,2.5385190420,1.1184028076,-0.4839075026,0.3269046614,,,
1.6796875000,26,2.6352363467,1.0955740191,-0.6776422336,-0.1067694666,,,
1.6816406250,26,2.7189367908,1.0039049621,-0.9771416022,-0.5467682625,,,
1.6835937500,26,2.7880973892,0.8459315247,-1.3314516197,-0.8551165960,,,
1.6855468750,26,2.8414390235,0.6288799338,-1.6804615257,-0.9317396444,,,
1.6875000000,27,2.8779488994,0.3641695321,-1.9643056971,-0.7420012388,,,
1.6894531250,27,2.8968983472,0.0666229659,-2.1327300628,-0.3262872190,,,
1.6914062500,27,2.8978556523,-0.2465611586,-2.1529639285,0.2109935050,,,
1.6933593750,27,2.8806936910,-0.5570015211,-2.0148708931,0.7299763019,,,
1.6953125000,27,2.8455922399,-0.8464100419,-1.7325763225,1.0936475193,,,
1.6972656250,27,2.7930349147,-1.0978615800,-1.3423176334,1.2053920061,,,
1.6992187500,27,2.7238007958,-1.2969688491,-0.8968519450,1.0354907883,,,
1.7011718750,27,2.6389508847,-1.4328806305,-0.4572918596,0.6293064537,,,
1.7031250000,27,2.5398096293,-1.4990336855,-0.0836407106,0.0949124460,,,
1.7050781250,27,2.4279418414,-1.4936059460,0.1744988265,-0.4264439277,,,
1.7070312500,27,2.3051254107,-1.4196393886,0.2855958647,-0.7989503983,,,
1.7089843750,27,2.1733202922,-1.2848240343,0.2410476527,-0.9293300219,,,
1.7109375000,27,2.0346343113,-1.1009581431,0.0564650256,-0.7922659696,,,
1.7128906250,27,1.8912863840,-0.8831222544,-0.2308129654,-0.4371840092,,,
1.7148437500,27,1.7455677968,-0.6486246762,-0.5675878504,0.0254646815,,,
1.7167968750,27,1.5998022241,-0.4157919638,-0.8931395862,0.4546592466,,,
1.7187500000,27,1.4563051832,-0.2026887361,-1.1487345134,0.7176546469,,,
1.7207031250,27,1.3173436365,-0.0258561064,-1.2868222408,0.7265686468,,,
1.7226562500,27,1.1850964482,0.1008432961,-1.2784887380,0.4626809197,,,
1.7246093750,27,1.0616163884,0.1671931716,-1.1180045282,-0.0182174348,,,
1.7265625000,27,0.9487943486,0.1673367679,-0.8237593404,-0.6008922073,,,
1.7285156250,27,0.8483263970,0.1001857359,-0.4354374209,-1.1420245931,,,
1.7304687500,27,0.7616842476,-0.0305038886,-0.0078732538,-1.5092676299,,,
1.7324218750,27,0.6900896635,-0.2163938748,0.3974554981,-1.6172985067,,,
1.7343750000,27,0.6344932390,-0.4451458738,0.7219729921,-1.4509880084,,,
1.7363281250,27,0.5955579349,-0.7012827905,0.9191016207,-1.0693391205,,,
1.7382812500,27,0.5736476533,-0.9672693808,0.9614931712,-0.5891173520,,,
1.7402343750,27,0.5688210526,-1.2247367170,0.8452685633,-0.1526611376,,,
1.7421875000,27,0.5808307104,-1.4557651313,0.5906059079,0.1113036515,,,
1.7441406250,27,0.6091276500,-1.6441361676,0.2385853785,0.1231038160,,,
1.7460937500,27,0.6528711494,-1.7764662336,-0.1552176102,-0.1259010860,,,
1.7480468750,27,0.7109436626,-1.8431428919,-0.5293929792,-0.5708241825,,,
1.7500000000,28,0.7819705904,-1.8389984936,-0.8262613606,-1.0909272040,,,
1.7519531250,28,0.8643445559,-1.7636741695,-1.0008544139,-1.5426235232,,,
1.7539062500,28,0.9562537576,-1.6216487889,-1.0279113697,-1.7987640785,,,
1.7558593750,28,1.0557139058,-1.4219308558,-0.9058020908,-1.7834398005,,,
1.7578125000,28,1.1606031806,-1.1774348182,-0.6567656758,-1.4927627539,,,
1.7597656250,28,1.2686996015,-0.9040852694,-0.3234275199,-0.9959308151,,,
1.7617187500,28,1.3777201523,-0.6197114989,0.0378625788,-0.4162841915,,,
1.7636718750,28,1.4853609772,-0.3428094650,0.3658335226,0.1024544850,,,
1.7656250000,28,1.5893379440,-0.0912575086,0.6038659590,0.4355042258,,,
1.7675781250,28,1.6874268631,0.1189246477,0.7088440565,0.5111368873,,,
1.7695312500,28,1.7775026599,0.2746870905,0.6579071278,0.3302273659,,,
1.7714843750,28,1.8575768119,0.3668536244,0.4520493072,-0.0341144241,,,
1.7734375000,28,1.9258323976,0.3907553799,0.1160064092,-0.4567278299,,,
1.7753906250,28,1.9806561408,0.3465499536,-0.3055526320,-0.7948688232,,,
1.7773437500,28,2.0206668915,0.2392038406,-0.7549367703,-0.9275125416,,,
1.7792968750,28,2.0447400425,0.0781394002,-1.1703701238,-0.7887177800,,,
1.7812500000,28,2.0520274556,-0.1234290101,-1.4955637468,-0.3859075051,,,
1.7832031250,28,2.0419725467,-0.3494234230,-1.6884313102,0.2019465839,,,
1.7851562500,28,2.0143202679,-0.5820304157,-1.7275914490,0.8457398354,,,
1.7871093750,28,1.9691218088,-0.8029503439,-1.6156442845,1.4013833692,,,
1.7890625000,28,1.9067339371,-0.9946805248,-1.3787120683,1.7490546274,,,
1.7910156250,28,1.8278129888,-1.1417428723,-1.0623157853,1.8257944968,,,
1.7929687500,28,1.7333036119,-1.2317703599,-0.7242302476,1.6425192769,,,
1.7949218750,28,1.6244224635,-1.2563765317,-0.4254308256,1.2807872008,,,
1.7968750000,28,1.5026371429,-1.2117474109,-0.2205422031,0.8702078730,,,
1.7988281250,28,1.3696407306,-1.0989145127,-0.1492770999,0.5526881493,,,
1.8007812500,28,1.2273223789,-0.9236899070,-0.2301987107,0.4433156727,,,
1.8027343750,28,1.0777344684,-0.6962678419,-0.4577786705,0.5986027199,,,
1.8046875000,28,0.9230569069,-0.4305206916,-0.8032090572,1.0007956907,,,
1.8066406250,28,0.7655591926,-0.1430383086,-1.2188422203,1.5625523470,,,
1.8085937500,28,0.6075609094,0.1480222479,-1.6455671620,2.1507066035,,,
1.8105468750,28,0.4513913433,0.4241964108,-2.0219738046,2.6226092023,,,
1.8125000000,29,0.2993489279,0.6679934029,-2.2938779901,2.8650857800,,,
1.8144531250,29,0.1536612285,0.8641098020,-2.4227238610,2.8253363220,,,
1.8164062500,29,0.0164461664,1.0004907596,-2.3915551095,2.5253084423,,,
1.8183593750,29,-0.1103248393,1.0691648882,-2.2076252274,2.0556060720,,,
1.8203125000,29,-0.2248611659,1.0667946094,-1.9012403677,1.5506036698,,,
1.8222656250,29,-0.3255841175,0.9949035997,-1.5210151994,1.1515868744,,,
1.8242187500,29,-0.4111543471,0.8597654868,-1.1262808165,0.9680219018,,,
1.8261718750,29,-0.4804950883,0.6719615687,-0.7778273240,1.0475686384,,,
1.8281250000,29,-0.5328107935,0.4456384107,-0.5284230870,1.3630557893,,,
1.8300781250,29,-0.5676008485,0.1975170994,-0.4145873958,1.8199874419,,,
1.8320312500,29,-0.5846681265,-0.0542767453,-0.4508980521,2.2825231579,,,
1.8339843750,29,-0.5841222299,-0.2914806067,-0.6277205339,2.6108104670,,,
1.8359375000,29,-0.5663773644,-0.4969719481,-0.9127124465,2.6994370947,,,
1.8378906250,29,-0.5321448822,-0.6559652825,-1.2558689255,2.5064631838,,,
1.8398437500,29,-0.4824206251,-0.7570459520,-1.5973231139,2.0650753434,,,
1.8417968750,29,-0.4184672892,-0.7929685206,-1.8766866989,1.4746670297,,,
1.8437500000,29,-0.3417921204,-0.7611641008,-2.0424755980,0.8737882447,,,
1.8457031250,29,-0.2541203305,-0.6639212300,-2.0601526052,0.4023764810,,,
1.8476562500,29,-0.1573647012,-0.5082276810,-1.9175341999,0.1636184156,,,
1.8496093750,29,-0.0535919060,-0.3052842313,-1.6267192511,0.1958929566,,,
1.8515625000,29,0.0550138580,-0.0697242975,-1.2222390601,0.4624831701,,,
1.8535156250,29,0.1661892931,0.1814061517,-0.7557167182,0.8618746386,,,
1.8554687500,29,0.2776318046,0.4298372713,-0.2878674269,1.2558156334,,,
1.8574218750,29,0.3870399896,0.6573497132,0.1209144255,1.5074464844,,,
1.8593750000,29,0.4921540994,0.8470458326,0.4199155345,1.5190458612,,,
1.8613281250,29,0.5907957702,0.9845290790,0.5759536119,1.2590466923,,,
1.8632812500,29,0.6809063236,1.0589093289,0.5784945563,0.7709153534,,,
1.8652343750,29,0.7605829668,1.0635640508,0.4412400853,0.1614585501,,,
1.8671875000,29,0.8281122603,0.9966022213,0.1999388121,-0.4282393553,,,
1.8691406250,29,0.8820002640,0.8609986368,-0.0932380267,-0.8612852549,,,
1.8710937500,29,0.9209988366,0.6643892508,-0.3778799011,-1.0423110454,,,
1.8730468750,29,0.9441276260,0.4185418001,-0.5948044957,-0.9434418076,,,
1.8750000000,30,0.9506913659,0.1385386313,-0.6953344902,-0.6117828212,,,
1.8769531250,30,0.9402921761,-0.1582712992,-0.6489384129,-0.1563747993,,,
1.8789062500,30,0.9128366509,-0.4534781773,-0.4480451690,0.2818062990,,,
1.8808593750,30,0.8685376110,-0.7288907647,-0.1092820630,0.5685817258,,,
1.8828125000,30,0.8079104886,-0.9678003039,0.3290568075,0.6134184567,,,
1.8847656250,30,0.7317644090,-1.1561407696,0.8129177654,0.3942940715,,,
1.8867187500,30,0.6411881241,-1.2834645690,1.2808505782,-0.0362371278,,,
1.8886718750,30,0.5375310451,-1.3436656648,1.6735249899,-0.5654395089,,,
1.8906250000,30,0.4223797054,-1.3353997060,1.9429187795,-1.0513076674,,,
1.8925781250,30,0.2975300671,-1.2621718839,2.0597465218,-1.3615220120,,,
1.8945312500,30,0.1649561541,-1.1320863999,2.0179722341,-1.4097714084,,,
1.8964843750,30,0.0267755628,-0.9572750277,1.8357032814,-1.1794873203,,,
1.8984375000,30,-0.1147875465,-0.7530446355,1.5523265372,-0.7284838207,,,
1.9003906250,30,-0.2574413300,-0.5368031255,1.2223330737,-0.1732307898,,,
1.9023437500,30,-0.3988663307,-0.3268387070,0.9067934162,0.3429306368,,,
1.9042968750,30,-0.5367560383,-0.1410376407,0.6638113204,0.6889205201,,,
1.9062500000,30,-0.6688572272,0.0043701116,0.5394431118,0.7816769419,,,
1.9082031250,30,-0.7930093674,0.0959498473,0.5604970980,0.6087389703,,,
1.9101562500,30,-0.9071824177,0.1240062532,0.7303347120,0.2314682207,,,
1.9121093750,30,-1.0095123397,0.0832668514,1.0283274909,-0.2319720408,,,
1.9140625000,30,-1.0983337104,-0.0267429150,1.4130545599,-0.6392133671,,,
1.9160156250,30,-1.1722088627,-0.2016591285,1.8287426661,-0.8629184133,,,
1.9179687500,30,-1.2299530435,-0.4325762221,2.2139457433,-0.8259014467,,,
1.9199218750,30,-1.2706551489,-0.7066605005,2.5111121470,-0.5225054723,,,
1.9218750000,30,-1.2936936732,-1.0080375931,2.6755494222,-0.0203749932,,,
1.9238281250,30,-1.2987475930,-1.3188919697,2.6823902782,0.5578635982,,,
1.9257812500,30,-1.2858019948,-1.6207018643,2.5304747509,1.0679952687,,,
1.9277343750,30,-1.2551483488,-1.8955235092,2.2425438276,1.3835332195,,,
1.9296875000,30,-1.2073794232,-2.1272351417,1.8617143029,1.4301858318,,,
1.9316406250,30,-1.1433789282,-2.3026540524,1.4447838272,1.2060292579,,,
1.9335937500,30,-1.0643060715,-2.4124487963,1.0534088068,0.7818587900,,,
1.9355468750,30,-0.9715752948,-2.4517829713,0.7445291103,0.2816244250,,,
1.9375000000,31,-0.8668315473,-2.4206456881,0.5615308290,-0.1516857685,,,
1.9394531250,31,-0.7519215278,-2.3238457017,0.5275233688,-0.3953626983,,,
1.9414062500,31,-0.6288613999,-2.1706696300,0.6417778137,-0.3807168144,,,
1.9433593750,31,-0.4998015454,-1.9742281071,0.8798811021,-0.1119938131,,,
1.9453125000,31,-0.3669889726,-1.7505354819,1.1975817851,0.3347196668,,,
1.9472656250,31,-0.2327280379,-1.5173872500,1.5377281368,0.8323011665,,,
1.9492187500,31,-0.0993401691,-1.2931135147,1.8392177288,1.2374068208,,,
1.9511718750,31,0.0308767061,-1.0952954133,2.0465642691,1.4297538001,,,
1.9531250000,31,0.1556883137,-0.9395340306,2.1185913570,1.3451047636,,,
1.9550781250,31,0.2729630684,-0.8383576583,2.0348987826,0.9929141861,,,
1.9570312500,31,0.3807093048,-0.8003436119,1.7990939331,0.4537999345,,,
1.9589843750,31,0.4771100539,-0.8295158546,1.4382847114,-0.1424674410,,,
1.9609375000,31,0.5605547556,-0.9250604435,0.9989126594,-0.6524259265,,,
1.9628906250,31,0.6296673527,-1.0813786509,0.5395750090,-0.9581158118,,,
1.9648437500,31,0.6833302729,-1.2884740645,0.1219533704,-0.9992652495,,,
1.9667968750,31,0.7207038808,-1.5326466803,-0.1987383272,-0.7896477647,,,
1.9687500000,31,0.7412410587,-1.7974455953,-0.3822991487,-0.4131300313,,,
1.9707031250,31,0.7446966603,-2.0648138712,-0.4097490292,-0.0004946693,,,
1.9726562500,31,0.7311316727,-2.3163457400,-0.2862325820,0.3066080529,,,
1.9746093750,31,0.7009120134,-2.5345684872,-0.0401668320,0.3946980304,,,
1.9765625000,31,0.6547019843,-2.7041596272,0.2812341179,0.2097916210,,,
1.9785156250,31,0.5934524957,-2.8130144964,0.6193601700,-0.2275711815,,,
1.9804687500,31,0.5183842685,-2.8530898204,0.9133790649,-0.8277192855,,,
1.9824218750,31,0.4309663076,-2.8209644303,1.1097538538,-1.4561869511,,,
1.9843750000,31,0.3328900240,-2.7180780314,1.1706213960,-1.9703264255,,,
1.9863281250,31,0.2260394583,-2.5506313712,1.0797266771,-2.2581645116,,,
1.9882812500,31,0.1124581283,-2.3291547692,0.8449884576,-2.2688558134,,,
1.9902343750,31,-0.0056869203,-2.0677750938,0.4972964618,-2.0263884689,,,
1.9921875000,31,-0.1261432294,-1.7832323003,0.0857272962,-1.6227881216,,,
1.9941406250,31,-0.2466125433,-1.4937141057,-0.3300758992,-1.1926847292,,,
1.9960937500,31,-0.3647912283,-1.2175900590,-0.6891732749,-0.8762146079,,,
1.9980468750,31,-0.4784107904,-0.9721332780,-0.9388038503,-0.7804269669,,,
2.0000000000,32,-0.5852777802,-0.7723189861,-1.0425910551,-0.9497739372,,,
2.0019531250,32,-0.6833123874,-0.6297836222,-0.9862002395,-1.3537734520,,,
2.0039062500,32,-0.7705850481,-0.5520171022,-0.7795670042,-1.8952276161,,,
2.0058593750,32,-0.8453504240,-0.5418445505,-0.4553492977,-2.4367453960,,,
2.0078125000,32,-0.9060781590,-0.5972336322,-0.0638443703,-2.8383016215,,,
2.0097656250,32,-0.9514798736,-0.7114409121,0.3348377244,-2.9955393781,,,
2.0117187500,32,-0.9805319248,-0.8734870257,0.6801251085,-2.8683189380,,,
2.0136718750,32,-0.9924935336,-1.0689275130,0.9204031366,-2.4916893040,,,
2.0156250000,32,-0.9869199601,-1.2808655550,1.0210345498,-1.9662756714,,,
2.0175781250,32,-0.9636704991,-1.4911359756,0.9697316497,-1.4307173843,,,
2.0195312500,32,-0.9229111526,-1.6815779352,0.7784438704,-1.0237101725,,,
2.0214843750,32,-0.8651119342,-1.8353075510,0.4814668947,-0.8460554067,,,
2.0234375000,32,-0.7910388521,-1.9379016889,0.1300679869,-0.9331169779,,,
2.0253906250,32,-0.7017407108,-1.9784103616,-0.2155351449,-1.2452337936,,,
2.0273437500,32,-0.5985309620,-1.9501271208,-0.4955924294,-1.6787145939,,,
2.0292968750,32,-0.4829649240,-1.8510637068,-0.6601693322,-2.0944006121,,,
2.0312500000,32,-0.3568127661,-1.6840958410,-0.6769683658,-2.3559666125,,,
2.0332031250,32,-0.2220287324,-1.4567699787,-0.5364057338,-2.3674616787,,,
2.0351562500,32,-0.0807171438,-1.1807844816,-0.2531521463,-2.0997993424,,,
2.0371093750,32,0.0649042274,-0.8711813741,0.1361024405,-1.5989351607,,,
2.0390625000,32,0.2125427690,-0.5453050262,0.5783122745,-0.9734886565,,,
2.0410156250,32,0.3598709495,-0.2216003623,1.0122856098,-0.3652001180,,,
2.0429687500,32,0.5045668507,0.0816656178,1.3781624220,0.0896828760,,,
2.0449218750,32,0.6443546012,0.3476698696,1.6266841177,0.2975085154,,,
2.0468750000,32,0.7770440032,0.5621986200,1.7268117212,0.2326467119,,,
2.0488281250,32,0.9005686600,0.7146307245,1.6705062566,-0.0557283745,,,
2.0507812500,32,1.0130219352,0.7986705102,1.4739270452,-0.4573559481,,,
2.0527343750,32,1.1126901150,0.8127790190,1.1748615686,-0.8313445855,,,
2.0546875000,32,1.1980821927,0.7602735955,0.8267874945,-1.0450174409,,,
2.0566406250,32,1.2679557546,0.6490888928,0.4904920196,-1.0104982755,,,
2.0585937500,32,1.3213385130,0.4912159791,0.2245541382,-0.7090091872,,,
2.0605468750,32,1.3575451110,0.3018586735,0.0761725414,-0.1962188639,,,
2.0625000000,33,1.3761889031,0.0983659614,0.0737680120,0.4128262271,,,
2.0644531250,33,1.3771885073,-0.1009850511,0.2225127816,0.9750594652,,,
2.0664062500,33,1.3607690127,-0.2782707568,0.5034834156,1.3584478567,,,
2.0683593750,33,1.3274578226,-0.4171778551,0.8765693957,1.4780398641,,,
2.0703125000,33,1.2780752052,-0.5041476917,1.2866845867,1.3191288553,,,
2.0722656250,33,1.2137197178,-0.5293283162,1.6723143172,0.9411847818,,,
2.0742187500,33,1.1357487602,-0.4872678528,1.9750670028,0.4614773630,,,
2.0761718750,33,1.0457545977,-0.3773008211,2.1487427648,0.0228798021,,,
2.0781250000,33,0.9455362731,-0.2036004516,2.1665067036,-0.2453224994,,,
2.0800781250,33,0.8370679004,0.0251066627,2.0250496847,-0.2628768475,,,
2.0820312500,33,0.7224638954,0.2961436944,1.7450886810,-0.0205473777,,,
2.0839843750,33,0.6039417519,0.5937624426,1.3681288326,0.4173866035,,,
2.0859375000,33,0.4837830153,0.9002366516,0.9499916197,0.9308023856,,,
2.0878906250,33,0.3642931373,1.1970935578,0.5521172204,1.3767318295,,,
2.0898437500,33,0.2477609152,1.4663977946,0.2319957861,1.6286410045,,,
2.0917968750,33,0.1364182244,1.6919981338,0.0342180211,1.6112251340,,,
2.0937500000,33,0.0324007523,1.8606501325,-0.0164610272,1.3211814381,,,
2.0957031250,33,-0.0622895820,1.9629364072,0.0810353506,0.8282653288,,,
2.0976562500,33,-0.1458198619,1.9939203691,0.3039548345,0.2563389990,,,
2.0996093750,33,-0.2165584448,1.9534878385,0.6092807710,-0.2503952134,,,
2.1015625000,33,-0.2731037068,1.8463527226,0.9404569384,-0.5667240212,,,
2.1035156250,33,-0.3143087549,1.6817263655,1.2362248499,-0.6205378624,,,
2.1054687500,33,-0.3393016768,1.4726736302,1.4401970026,-0.4123832074,,,
2.1074218750,33,-0.3475009708,1.2352006190,1.5096748356,-0.0150958368,,,
2.1093750000,33,-0.3386258878,0.9871376509,1.4223377835,0.4463823054,,,
2.1113281250,33,-0.3127015026,0.7468953886,1.1797613824,0.8294689585,,,
2.1132812500,33,-0.2700584268,0.5321808579,0.8072162608,1.0132418846,,,
2.1152343750,33,-0.2113271668,0.3587628922,0.3497791080,0.9318005117,,,
2.1171875000,33,-0.1374272276,0.2393730925,-0.1346388774,0.5925433293,,,
2.1191406250,33,-0.0495511512,0.1828189388,-0.5842604442,0.0743496681,,,
2.1210937500,33,0.0508562300,0.1933708969,-0.9430110230,-0.4938378384,,,
2.1230468750,33,0.1621229617,0.2704662548,-1.1691976224,-0.9681621471,,,
2.1250000000,34,0.2823791178,0.4087503374,-1.2419463750,-1.2291006398,,,
2.1269531250,34,0.4095894216,0.5984522198,-1.1643963348,-1.2140586996,,,
2.1289062500,34,0.5415887667,0.8260687335,-0.9631523591,-0.9343767041,,,
2.1308593750,34,0.6761200160,1.0753090606,-0.6840825824,-0.4720907790,,,
2.1328125000,34,0.8108734173,1.3282340397,-0.3851153420,0.0426636172,,,
2.1347656250,34,0.9435269448,1.5665107261,-0.1271577650,0.4674111590,,,
2.1367187500,34,1.0717868604,1.7726947142,0.0354492115,0.6864576391,,,
2.1386718750,34,1.1934277848,1.9314507922,0.0634524137,0.6426498387,,,
2.1406250000,34,1.3063315768,2.0306267967,-0.0611429708,0.3530693071,,,
2.1425781250,34,1.4085243398,2.0621057748,-0.3322151558,-0.0956414852,,,
2.1445312500,34,1.4982109078,2.0223770174,-0.7204253437,-0.5710398001,,,
2.1464843750,34,1.5738062075,1.9127861309,-1.1777352911,-0.9312179391,,,
2.1484375000,34,1.6339629459,1.7394466972,-1.6448394780,-1.0637545110,,,
2.1503906250,34,1.6775951412,1.5128196679,-2.0603545313,-0.9166058065,,,
2.1523437500,34,1.7038970820,1.2469898099,-2.3703348388,-0.5124701989,,,
2.1542968750,34,1.7123573856,0.9586896427,-2.5366324725,0.0573121547,,,
2.1562500000,34,1.7027679072,0.6661389185,-2.5427995283,0.6576534641,,,
2.1582031250,34,1.6752273454,0.3877805540,-2.3966137589,1.1465848071,,,
2.1601562500,34,1.6301394800,0.1410011478,-2.1288342960,1.4139923816,,,
2.1621093750,34,1.5682060740,-0.0590747099,-1.7883814291,1.4116086196,,,
2.1640625000,34,1.4904145626,-0.2006322769,-1.4346913568,1.1660401902,,,
2.1660156250,34,1.3980207461,-0.2759835928,-1.1284368265,0.7712641232,,,
2.1679687500,34,1.2925267899,-0.2820965579,-0.9220590738,0.3626505583,,,
2.1699218750,34,1.1756549148,-0.2207992789,-0.8515858506,0.0796337146,,,
2.1718750000,34,1.0493172412,-0.0986454486,-0.9310099903,0.0272639229,,,
2.1738281250,34,0.9155823130,0.0735498348,-1.1501041241,0.2471802818,,,
2.1757812500,34,0.7766388884,0.2814714245,-1.4760119392,0.7059616213,,,
2.1777343750,34,0.6347576310,0.5083095470,-1.8583681373,1.3040505907,,,
2.1796875000,34,0.4922513727,0.7359391633,-2.2371496105,1.9028072080,,,
2.1816406250,34,0.3514346442,0.9461910085,-2.5520349368,2.3622794344,,,
2.1835937500,34,0.2145831799,1.1221256620,-2.7518143398,2.5793410739,,,
2.1855468750,34,0.0838941097,1.2492217852,-2.8023843843,2.5157465583,,,
2.1875000000,35,-0.0385524690,1.3163956500,-2.6920820881,2.2084155704,,,
2.1894531250,35,-0.1508298636,1.3167808478,-2.4335275151,1.7591306201,,,
2.1914062500,35,-0.2511984675,1.2482137908,-2.0616877150,1.3064728615,,,
2.1933593750,35,-0.3381361594,1.1133911327,-1.6284634055,0.9876892639,,,
2.1953125000,35,-0.4103648892,0.9196881186,-1.1946413725,0.9009436148,,,
2.1972656250,35,-0.4668729855,0.6786505134,-0.8204658550,1.0782984702,,,
2.1992187500,35,-0.5069327923,0.4051955240,-0.5562972622,1.4768339620,,,
2.2011718750,35,-0.5301133279,0.1165774236,-0.4348129581,1.9903384170,,,
2.2031250000,35,-0.5362877439,-0.1688100058,-0.4659646451,2.4783674333,,,
2.2050781250,35,-0.5256354529,-0.4327107169,-0.6354775170,2.8047076854,,,
2.2070312500,35,-0.4986388894,-0.6582742734,-0.9071246870,2.8747039723,,,
2.2089843750,35,-0.4560749586,-0.8312259575,-1.2284223713,2.6612193624,,,
2.2109375000,35,-0.3990013246,-0.9408575268,-1.5388584979,2.2121134121,,,
2.2128906250,35,-0.3287377772,-0.9807695408,-1.7793728117,1.6371885658,,,
2.2148437500,35,-0.2468430040,-0.9493135052,-1.9016116114,1.0781817965,,,
2.2167968750,35,-0.1550871748,-0.8497030101,-1.8755153570,0.6700251376,,,
2.2187500000,35,-0.0554208172,-0.6897861214,-1.6940570431,0.5039915002,,,
2.2207031250,35,0.0500594696,-0.4814949069,-1.3743930214,0.6028252823,,,
2.2226562500,35,0.1591478641,-0.2400104896,-0.9552467333,0.9146724357,,,
2.2246093750,35,0.2695680883,0.0172981403,-0.4909325599,1.3274721220,,,
2.2265625000,35,0.3790134127,0.2720875484,-0.0429503230,1.6998640384,,,
2.2285156250,35,0.4851871981,0.5063208944,0.3295406440,1.9001389050,,,
2.2304687500,35,0.5858432655,0.7035272470,0.5788844127,1.8425551043,,,
2.2324218750,35,0.6788253866,0.8499513595,0.6763014572,1.5110662145,,,
2.2343750000,35,0.7621052039,0.9355137218,0.6163236040,0.9639543981,,,
2.2363281250,35,0.8338179153,0.9545139419,0.4176004106,0.3180976692,,,
2.2382812500,35,0.8922950993,0.9060284047,0.1199516084,-0.2828192365,,,
2.2402343750,35,0.9360941058,0.7939744784,-0.2218750758,-0.7074401145,,,
2.2421875000,35,0.9640234965,0.6268367912,-0.5467682625,-0.8724950455,,,
2.2441406250,35,0.9751640918,0.4170746667,-0.7968052979,-0.7653826882,,,
2.2460937500,35,0.9688852529,0.1802520417,-0.9263046620,-0.4473901087,,,
2.2480468750,35,0.9448561154,-0.0660494576,-0.9089682933,-0.0366697621,,,
2.2500000000,36,0.9030515780,-0.3034584827,-0.7420012388,0.3243588722,,,
2.2519531250,36,0.8437529397,-0.5140973385,-0.4465668558,0.5082468603,,,
2.2539062500,36,0.7675431757,-0.6818312697,-0.0645065678,0.4376369469,,,
2.2558593750,36,0.6752969339,-0.7933965339,0.3481649860,0.1066409274,,,
2.2578125000,36,0.5681654275,-0.8393285912,0.7299763019,-0.4173871715,,,
2.2597656250,36,0.4475564874,-0.8146256779,1.0235692786,-1.0121694579,,,
2.2617187500,36,0.3151101245,-0.7191014819,1.1846327983,-1.5338947865,,,
2.2636718750,36,0.1726700285,-0.5574023186,1.1888081609,-1.8565312848,,,
2.2656250000,36,0.0222515038,-0.3386875992,1.0354907883,-1.9062872569,,,
2.2675781250,36,-0.1339935981,-0.0759958640,0.7479360135,-1.6817764157,,,
2.2695312500,36,-0.2938143342,0.2146594220,0.3696524114,-1.2543612078,,,
2.2714843750,36,-0.4548998590,0.5154012710,-0.0423556636,-0.7485803789,,,
2.2734375000,36,-0.6149196599,0.8077302793,-0.4264439277,-0.3080250331,,,
2.2753906250,36,-0.7715641353,1.0738089097,-0.7259031900,-0.0560153611,,,
2.2773437500,36,-0.9225848049,1.2976994013,-0.8977623330,-0.0618549880,,,
2.2792968750,36,-1.0658334479,1.4664690011,-0.9194483039,-0.3219110300,,,
2.2812500000,36,-1.1992994843,1.5710854567,-0.7922659696,-0.7607044707,,,
2.2832031250,36,-1.3211449443,1.6070403421,-0.5411560265,-1.2517110494,,,
2.2851562500,36,-1.4297364149,1.5746567641,-0.2107688833,-1.6521706148,,,
2.2871093750,36,-1.5236734027,1.4790600063,0.1415337438,-1.8423634249,,,
2.2890625000,36,-1.6018126178,1.3298131764,0.4546592466,-1.7585874635,,,
2.2910156250,36,-1.6632877530,1.1402432779,0.6733475551,-1.4107970591,,,
2.2929687500,36,-1.7075244129,0.9265047182,0.7568277674,-0.8800668416,,,
2.2949218750,36,-1.7342499297,0.7064455761,0.6852193947,-0.2965742279,,,
2.2968750000,36,-1.7434978973,0.4983557018,0.4626809197,0.1958671810,,,
2.2988281250,36,-1.7356073403,0.3196839674,0.1168149801,0.4790049953,,,
2.3007812500,36,-1.7112165365,0.1858141336,-0.3055774623,0.4923354867,,,
2.3027343750,36,-1.6712515984,0.1089847139,-0.7457329448,0.2494616123,,,
2.3046875000,36,-1.6169100155,0.0974281735,-1.1420245931,-0.1658594803,,,
2.3066406250,36,-1.5496394442,0.1547895080,-1.4395075352,-0.6228940561,,,
2.3085937500,36,-1.4711121186,0.2798647621,-1.5984241813,-0.9799800896,,,
2.3105468750,36,-1.3831953288,0.4666777393,-1.6003449113,-1.1235644084,,,
2.3125000000,37,-1.2879184845,0.7048895721,-1.4509880084,-0.9995277474,,,
2.3144531250,37,-1.1874373412,0.9805126069,-1.1792798928,-0.6282105035,,,
2.3164062500,37,-1.0839960140,1.2768788391,-0.8328022974,-0.0990192298,,,
2.3183593750,37,-0.9798874463,1.5757953839,-0.4703357698,0.4539096736,,,
2.3203125000,37,-0.8774130242,1.8588064232,-0.1526611376,0.8883208288,,,
2.3222656250,37,-0.7788420439,2.1084736448,0.0669481049,1.0926928355,,,
2.3242187500,37,-0.6863717437,2.3095859006,0.1510614057,1.0166861893,,,
2.3261718750,37,-0.6020885979,2.4502137454,0.0839562335,0.6848424371,,,
2.3281250000,37,-0.5279315527,2.5225353348,-0.1259010860,0.1897809985,,,
2.3300781250,37,-0.4656578473,2.5233761032,-0.4471453574,-0.3332410374,,,
2.3320312500,37,-0.4168120175,2.4544246030,-0.8303725663,-0.7434331761,,,
2.3339843750,37,-0.3826986275,2.3221094662,-1.2158131594,-0.9330703130,,,
2.3359375000,37,-0.3643592040,2.1371460816,-1.5426235232,-0.8570071306,,,
2.3378906250,37,-0.3625537799,1.9137846104,-1.7583485738,-0.5450191374,,,
2.3398437500,37,-0.3777473689,1.6688117907,-1.8270816924,-0.0935882942,,,
2.3417968750,37,-0.4101016075,1.4203761485,-1.7350511212,0.3606149953,,,
2.3437500000,37,-0.4594717137,1.1867185475,-1.4927627539,0.6782850799,,,
2.3457031250,37,-0.5254088122,0.9848966091,-1.1333655937,0.7557763798,,,
2.3476562500,37,-0.6071675882,0.8295919625,-0.7074944708,0.5536441918,,,
2.3496093750,37,-0.7037191343,0.7320835075,-0.2753932753,0.1076075800,,,
2.3515625000,37,-0.8137687668,0.6994582925,0.1024544850,-0.4810716308,,,
2.3535156250,37,-0.9357784986,0.7341150455,0.3747285219,-1.0731584702,,,
2.3554687500,37,-1.0679937759,0.8335949820,0.5072435382,-1.5294087178,,,
2.3574218750,37,-1.2084740104,0.9907516933,0.4882483867,-1.7485241180,,,
2.3593750000,37,-1.3551263727,1.1942482732,0.3302273659,-1.6946984350,,,
2.3613281250,37,-1.5057422552,1.4293470197,0.0679232294,-1.4072067990,,,
2.3632812500,37,-1.6580357655,1.6789366463,-0.2471100075,-0.9894122597,,,
2.3652343750,37,-1.8096835780,1.9247253723,-0.5545758611,-0.5802046399,,,
2.3671875000,37,-1.9583654441,2.1485166978,-0.7948688232,-0.3157015938,,,
2.3691406250,37,-2.1018046531,2.3334788969,-0.9184029416,-0.2917106258,,,
2.3710937500,37,-2.2378077346,2.4653197038,-0.8933823408,-0.5372422578,,,
2.3730468750,37,-2.3643027083,2.5332842755,-0.7108031485,-1.0063357220,,,
2.3750000000,38,-2.4793752101,2.5309068373,-0.3859075051,-1.5904395907,,,
2.3769531250,38,-2.5813018634,2.4564635937,0.0441370698,-2.1479562012,,,
2.3789062500,38,-2.6685803107,2.3130953162,0.5259717715,-2.5428545639,,,
2.3808593750,38,-2.7399553797,2.1085910571,0.9983012219,-2.6817709421,,,
2.3828125000,38,-2.7944409259,1.8548480639,1.4013833692,-2.5394306555,,,
2.3847656250,38,-2.8313369695,1.5670455506,1.6862767565,-2.1654253249,,,
2.3867187500,38,-2.8502418262,1.2625899337,1.8224051435,-1.6704895403,,,
2.3886718750,38,-2.8510590201,0.9599050784,1.8022615411,-1.1960393636,,,
2.3906250000,38,-2.8339988575,0.6771519036,1.6425192769,-0.8753223314,,,
2.3925781250,38,-2.7995746332,0.4309666256,1.3813773296,-0.7968274726,,,
2.3945312500,38,-2.7485935381,0.2353056138,1.0725537012,-0.9799842624,,,
2.3964843750,38,-2.6821424243,0.1004774012,0.7768626781,-1.3698112043,,,
2.3984375000,38,-2.6015686801,0.0324293386,0.5526881493,-1.8519810022,,,
2.4003906250,38,-2.5084565470,0.0323386249,0.4468370877,-2.2841735041,,,
2.4023437500,38,-2.4045992957,0.0965362187,0.4871980791,-2.5351234000,,,
2.4042968750,38,-2.2919677470,0.2167689249,0.6783486309,-2.5206605491,,,
2.4062500000,38,-2.1726756896,0.3807813663,1.0007956907,-2.2268648350,,,
2.4082031250,38,-2.0489427996,0.5731772424,1.4139679027,-1.7139887716,,,
2.4101562500,38,-1.9230557115,0.7764998036,1.8624937647,-1.1000718687,,,
2.4121093750,38,-1.7973279230,0.9724561804,2.2847880348,-0.5287364638,,,
2.4140625000,38,-1.6740592340,1.1432001753,2.6226092023,-0.1299899339,,,
2.4160156250,38,-1.5554954321,1.2725840494,2.8300995701,0.0152252174,,,
2.4179687500,38,-1.4437889283,1.3472919950,2.8809000661,-0.1029807663,,,
2.4199218750,38,-1.3409610350,1.3577762390,2.7722317536,-0.4209435481,,,
2.4218750000,38,-1.2488665435,1.2989304814,2.5253084423,-0.8191135751,,,
2.4238281250,38,-1.1691612245,1.1704536914,2.1820162369,-1.1550507228,,,
2.4257812500,38,-1.1032728179,0.9768788762,1.7983772782,-1.3026998292,,,
2.4277343750,38,-1.0523760220,0.7272647974,1.4358157970,-1.1871807747,,,
2.4296875000,38,-1.0173719192,0.4345721175,1.1515868744,-0.8055560461,,,
2.4316406250,38,-0.9988721974,0.1147674604,0.9898587006,-0.2278818444,,,
2.4335937500,38,-0.9971884460,-0.2142821538,0.9748373122,0.4217475192,,,
2.4355468750,38,-1.0123267107,-0.5340474216,1.1070046434,0.9989689433,,,
2.4375000000,39,-1.0439874057,-0.8266210987,1.3630557893,1.3784805497,,,
2.4394531250,39,-1.0915705819,-1.0759590257,1.6995451858,1.4881552932,,,
2.4414062500,39,-1.1541864606,-1.2689913149,2.0596737104,1.3285906621,,,
2.4433593750,39,-1.2306710485,-1.3965262272,2.3821594679,0.9727384009,,,
2.4453125000,39,-1.3196065582,-1.4538837276,2.6108104670,0.5457175484,,,
2.4472656250,39,-1.4193462804,-1.4412145527,2.7033080465,0.1903451196,,,
2.4492187500,39,-1.5280434680,-1.3634825600,2.6378328240,0.0278329827,,,
2.4511718750,39,-1.6436837302,-1.2301116029,2.4165009630,0.1244241317,,,
2.4531250000,39,-1.7641203663,-1.0543215730,2.0650753434,0.4731135773,,,
2.4550781250,39,-1.8871120228,-0.8521999235,1.6289964134,0.9954646592,,,
2.4570312500,39,-2.0103620125,-0.6415734346,1.1663507125,1.5630238465,,,
2.4589843750,39,-2.1315586082,-0.4407589097,0.7388720175,2.0324655359,,,
2.4609375000,39,-2.2484156057,-0.2672799340,0.4023764810,2.2848351796,,,
2.4628906250,39,-2.3587124443,-0.1366391933,0.1981212792,2.2581356393,,,
2.4648437500,39,-2.4603331840,-0.0612319752,0.1464324377,1.9643258748,,,
2.4667968750,39,-2.5513036554,-0.0494766298,0.2435940561,1.4860729821,,,
2.4687500000,39,-2.6298261328,-0.1052226362,0.4624831701,0.9541473858,,,
2.4707031250,39,-2.6943109232,-0.2274775640,0.7568510784,0.5116559200,,,
2.4726562500,39,-2.7434043164,-0.4104719780,1.0685840064,0.2749146721,,,
2.4746093750,39,-2.7760124099,-0.6440577706,1.3368119245,0.3016842145,,,
2.4765625000,39,-2.7913203880,-0.9144121527,1.5074464844,0.5754718584,,,
2.4785156250,39,-2.7888069199,-1.2049982191,1.5416621952,1.0102019029,,,
2.4804687500,39,-2.7682534229,-1.4977151132,1.4219995647,1.4739724379,,,
2.4824218750,39,-2.7297480299,-1.7741575910,1.1551393237,1.8253860646,,,
2.4843750000,39,-2.6736841908,-2.0168971580,0.7709153534,1.9524956297,,,
2.4863281250,39,-2.6007539318,-2.2106954447,0.3177197883,1.8036892625,,,
2.4882812500,39,-2.5119358920,-2.3435652127,-0.1449842908,1.4020480995,,,
2.4902343750,39,-2.4084783447,-2.4076050069,-0.5558766399,0.8392396431,,,
2.4921875000,39,-2.2918775031,-2.3995492530,-0.8612852549,0.2506183117,,,
2.4941406250,39,-2.1638514874,-2.3209954416,-1.0235031109,-0.2216447614,,,
2.4960937500,39,-2.0263104112,-2.1782925571,-1.0266210745,-0.4672998169,,,
2.4980468750,39,-1.8813231100,-1.9820985320,-0.8789686844,-0.4380096524,,,
2.5000000000,40,-1.7310810939,-1.7466375845,-0.6117828212,-0.1603763521,,,
2.5019531250,40,-1.5778603572,-1.4887092262,-0.2743117947,0.2715645758,,,
2.5039062500,40,-1.4239817108,-1.2265180427,0.0738824352,0.7223234865,,,
2.5058593750,40,-1.2717703349,-0.9784058458,0.3722248029,1.0522872035,,,
2.5078125000,40,-1.1235152577,-0.7615746042,0.5685817258,1.1561678807,,,
2.5097656250,40,-0.9814294710,-0.5908892020,0.6273970407,0.9920306864,,,
2.5117187500,40,-0.8476113804,-0.4778435060,0.5352420019,0.5929430700,,,
2.5136718750,40,-0.7240082645,-0.4297618347,0.3029148458,0.0580514151,,,
2.5156250000,40,-0.6123823843,-0.4492915060,-0.0362371278,-0.4744706215,,,
2.5175781250,40,-0.5142803343,-0.5342218403,-0.4315116217,-0.8651891910,,,
2.5195312500,40,-0.4310061733,-0.6776422336,-0.8227525437,-1.0115429027,,,
2.5214843750,40,-0.3635988040,-0.8684282659,-1.1497276573,-0.8758908121,,,
2.5234375000,40,-0.3128139989,-1.0920219385,-1.3615220120,-0.4957892223,,,
2.5253906250,40,-0.2791113852,-1.3314516197,-1.4244840023,0.0263188808,,,
2.5273437500,40,-0.2626466188,-1.5685205631,-1.3274863235,0.5511757620,,,
2.5292968750,40,-0.2632688812,-1.7850811085,-1.0836822888,0.9408485953,,,
2.5312500000,40,-0.2805237468,-1.9643056971,-0.7284838207,1.0964841466,,,
2.5332031250,40,-0.3136613666,-2.0918660563,-0.3140759058,0.9853314954,,,
2.5351562500,40,-0.3616498276,-2.1569383129,0.0986782532,0.6496273213,,,
2.5371093750,40,-0.4231934522,-2.1529639285,0.4496807566,0.1949094008,,,
2.5390625000,40,-0.4967557180,-2.0781133827,0.6889205201,-0.2390377418,,,
2.5410156250,40,-0.5805863960,-1.9354202521,0.7842211215,-0.5166409019,,,
2.5429687500,40,-0.6727524320,-1.7325763225,0.7262084407,-0.5438584112,,,
2.5449218750,40,-0.7711720305,-1.4814020033,0.5297245992,-0.2941326282,,,
2.5468750000,40,-0.8736513443,-1.1970289602,0.2314682207,0.1841397579,,,
2.5488281250,40,-0.9779231262,-0.8968519450,-0.1157711824,0.7806687836,,,
2.5507812500,40,-1.0816866677,-0.5993228998,-0.4513864023,1.3532858804,,,
2.5527343750,40,-1.1826483232,-0.3226714093,-0.7164444384,1.7666880223,,,
2.5546875000,40,-1.2785619119,-0.0836407106,-0.8629184133,1.9292948033,,,
2.5566406250,40,-1.3672682883,0.1036726143,-0.8612212941,1.8181191368,,,
2.5585937500,40,-1.4467333890,0.2287943676,-0.7048677155,1.4848374116,,,
2.5605468750,40,-1.5150840896,0.2855958647,-0.4115375079,1.0413976154,,,
2.5625000000,41,-1.5706412435,0.2727140524,-0.0203749932,0.6291119609,,,
2.5644531250,41,-1.6119493233,0.1936393388,0.4140555935,0.3797069254,,,
2.5664062500,41,-1.6378021474,0.0564650256,0.8302173639,0.3790078014,,,
2.5683593750,41,-1.6472642389,-0.1266841655,1.1691352939,0.6432127477,,,
2.5703125000,41,-1.6396874449,-0.3405046063,1.3835332195,1.1142608480,,,
2.5722656250,41,-1.6147225230,-0.5675878504,1.4451504419,1.6755654806,,,
2.5742187500,41,-1.5723254942,-0.7896413789,1.3490985987,2.1838026720,,,
2.5761718750,41,-1.5127586482,-0.9887708637,1.1145804398,2.5080437773,,,
2.5781250000,41,-1.4365861863,-1.1487345134,0.7818587900,2.5655088240,,,
2.5800781250,41,-1.3446645751,-1.2560820195,0.4059480191,2.3441428707,,,
2.5820312500,41,-1.2381277823,-1.3010986638,0.0480108120,1.9058289687,,,
2.5839843750,41,-1.1183676517,-1.2784887380,-0.2341995706,1.3693580623,,,
2.5859375000,41,-0.9870097606,-1.1877506038,-0.3953626983,0.8778239820,,,
2.5878906250,41,-0.8458851833,-1.0332172264,-0.4096744425,0.5593801014,,,
2.5898437500,41,-0.6969986541,-0.8237593404,-0.2748870856,0.4921133950,,,
2.5917968750,41,-0.5424936878,-0.5721719375,-0.0126766798,0.6826629660,,,
2.5937500000,41,-0.3846152674,-0.2942868426,0.3347196668,1.0644429647,,,
2.5957031250,41,-0.2256707534,-0.0078732538,0.7110728944,1.5159566289,,,
2.5976562500,41,-0.0679896980,0.2685970994,1.0549143783,1.8941816051,,,
2.5996093750,41,0.0861167315,0.5172340766,1.3091084058,2.0738759200,,,
2.6015625000,41,0.2343960106,0.7219729921,1.4297538001,1.9820311065,,,
2.6035156250,41,0.3746934907,0.8696914941,1.3930282153,1.6180288239,,,
2.6054687500,41,0.5049899218,0.9511215819,1.1989090444,1.0539753777,,,
2.6074218750,41,0.6234366076,0.9614931712,0.8711913462,0.4151210244,,,
2.6093750000,41,0.7283875767,0.9008643345,0.4537999345,-0.1542710409,,,
2.6113281250,41,0.8184282080,0.7741151959,0.0039699577,-0.5302534478,,,
2.6132812500,41,0.8923998081,0.5906059079,-0.4166419769,-0.6429441709,,,
2.6152343750,41,0.9494197110,0.3635225671,-0.7515317662,-0.4954490203,,,
2.6171875000,41,0.9888965485,0.1089566826,-0.9581158118,-0.1627730443,,,
2.6191406250,41,1.0105404229,-0.1552176102,-1.0143275536,0.2289787069,,,
2.6210937500,41,1.0143678055,-0.4105902913,-0.9220152723,0.5374084681,,,
2.6230468750,41,1.0007010740,-0.6394992141,-0.7066121269,0.6430992889,,,
2.6250000000,42,0.9701626979,-0.8262613606,-0.4131300313,0.4825889334,,,
2.6269531250,42,0.9236641729,-0.9582657328,-0.0991015685,0.0660048222,,,
2.6289062500,42,0.8623898987,-1.0268516736,0.1744304869,-0.5254753270,,,
2.6308593750,42,0.7877762830,-1.0279113697,0.3524723607,-1.1616432838,,,
2.6328125000,42,0.7014864365,-0.9621745275,0.3946980304,-1.6987275692,,,
2.6347656250,42,0.6053809032,-0.8351553727,0.2817848528,-2.0185896121,,,
2.6367187500,42,0.5014849383,-0.6567656758,0.0184789843,-2.0609081291,,,
2.6386718750,42,0.3919529058,-0.4406207941,-0.3670871456,-1.8395326521,,,
2.6406250000,42,0.2790304211,-0.2030871275,-0.8277192855,-1.4385257492,,,
2.6425781250,42,0.1650148997,0.0378625788,-1.3044544754,-0.9889800559,,,
2.6445312500,42,0.0522152040,0.2639062549,-1.7356871728,-0.6329651075,,,
2.6464843750,42,-0.0570889051,0.4576541851,-2.0667072425,-0.4844861297,,,
2.6484375000,42,-0.1606868029,0.6038659590,-2.2581645116,-0.5981556844,,,
2.6503906250,42,-0.2564758197,0.6905178242,-2.2921417784,-0.9541650131,,,
2.6523437500,42,-0.3424981637,0.7096459991,-2.1748906594,-1.4636744607,,,
2.6542968750,42,-0.4169753027,0.6579071278,-1.9358044305,-1.9931459017,,,
2.6562500000,42,-0.4783392019,0.5368167826,-1.6227881216,-2.4009484456,,,
2.6582031250,42,-0.5252598698,0.3526493704,-1.2947472599,-2.5762047560,,,
2.6601562500,42,-0.5566687319,0.1160064092,-1.0123654365,-2.4692310238,,,
2.6621093750,42,-0.5717774206,-0.1589167337,-0.8286073800,-2.1052273590,,,
2.6640625000,42,-0.5700916540,-0.4553145219,-0.7804269669,-1.5774657255,,,
2.6660156250,42,-0.5514199599,-0.7549367703,-0.8829719050,-1.0218414590,,,
2.6679687500,42,-0.5158770920,-1.0393547422,-1.1271879458,-0.5797619085,,,
2.6699218750,42,-0.4638820785,-1.2912395532,-1.4811959682,-0.3595420142,,,
2.6718750000,42,-0.3961509376,-1.4955637468,-1.8952276161,-0.4068856788,,,
2.6738281250,42,-0.3136841876,-1.6406422713,-2.3093508909,-0.6925414975,,,
2.6757812500,42,-0.2177493690,-1.7189402808,-2.6627825318,-1.1205143079,,,
2.6777343750,42,-0.1098588865,-1.7275914490,-2.9033368457,-1.5545801674,,,
2.6796875000,42,0.0082564431,-1.6685906676,-2.9955393781,-1.8558358511,,,
2.6816406250,42,0.1346776721,-1.5486477075,-2.9261417526,-1.9209896501,,,
2.6835937500,42,0.2673313031,-1.3787120683,-2.7061787687,-1.7108970199,,,
2.6855468750,42,0.4040255826,-1.1732021620,-2.3692473867,-1.2615181818,,,
2.6875000000,43,0.5424888696,-0.9489926046,-1.9662756714,-0.6742923707,,,
2.6894531250,43,0.6804094098,-0.7242302476,-1.5575964489,-0.0885647019,,,
2.6914062500,43,0.8154758170,-0.5170615323,-1.2035602172,0.3563795177,,,
2.6933593750,43,0.9454175539,-0.3443599266,-0.9551493498,0.5592698809,,,
2.6953125000,43,1.0680447035,-0.2205422031,-0.8460554067,0.4843950700,,,
2.6972656250,43,1.1812863336,-0.1565561190,-0.8874534631,0.1711890825,,,
2.6992187500,43,1.2832267845,-0.1591101072,-1.0662872700,-0.2767659280,,,
2.7011718750,43,1.3721392424,-0.2301987107,-1.3473322118,-0.7203044356,,,
2.7031250000,43,1.4465160121,-0.3669568692,-1.6787145939,-1.0229795631,,,
2.7050781250,43,1.5050949587,-0.5618532358,-2.0000274377,-1.0886034079,,,
2.7070312500,43,1.5468816542,-0.8032090572,-2.2517785191,-0.8877356563,,,
2.7089843750,43,1.5711668426,-1.0760064506,-2.3846988698,-0.4658595810,,,
2.7109375000,43,1.5775389170,-1.3629297270,-2.3674616787,0.0689963671,,,
2.7128906250,43,1.5658911899,-1.6455671620,-2.1916091047,0.5757996237,,,
2.7148437500,43,1.5364238298,-1.9056894224,-1.8729193834,0.9191215225,,,
2.7167968750,43,1.4896404302,-2.1265155149,-1.4490010391,1.0062313592,,,
2.7187500000,43,1.4263392704,-2.2938779901,-0.9734886565,0.8125103403,,,
2.7207031250,43,1.3475994224,-2.3972061601,-0.5077439761,0.3882202064,,,
2.7226562500,43,1.2547619447,-2.4302587800,-0.1113546364,-0.1552287593,,,
2.7246093750,43,1.1494064957,-2.3915551095,0.1670898551,-0.6757472329,,,
2.7265625000,43,1.0333237724,-2.2844743071,0.2975085154,-1.0394237055,,,
2.7285156250,43,0.9084842601,-2.1170162360,0.2729561575,-1.1571200141,,,
2.7304687500,43,0.7770038378,-1.9012403677,0.1106471075,-1.0087768136,,,
2.7324218750,43,0.6411068435,-1.6524219215,-0.1507837861,-0.6487687765,,,
2.7343750000,43,0.5030872444,-1.3879840897,-0.4573559481,-0.1908431692,,,
2.7363281250,43,0.3652685926,-1.1262808165,-0.7482072066,0.2232288025,,,
2.7382812500,43,0.2299634679,-0.8853150157,-0.9651286415,0.4626945055,,,
2.7402343750,43,0.0994331165,-0.6814816156,-1.0616847687,0.4438540950,,,
2.7421875000,43,-0.0241520066,-0.5284230870,-1.0104982755,0.1532086532,,,
2.7441406250,43,-0.1387501017,-0.4360772644,-0.8075644075,-0.3486239355,,,
2.7460937500,43,-0.2424836305,-0.4099838634,-0.4729227691,-0.9433006450,,,
2.7480468750,43,-0.3336720430,-0.4508980521,-0.0475816599,-1.4869621467,,,
2.7500000000,44,-0.4108610506,-0.5547380276,0.4128262271,-1.8494334914,,,
2.7519531250,44,-0.4728479330,-0.7128702501,0.8466688018,-1.9496750574,,,
2.7539062500,44,-0.5187024373,-0.9127124465,1.1958770747,-1.7777698771,,,
2.7558593750,44,-0.5477829015,-1.1386123304,1.4149559303,-1.3974234005,,,
2.7578125000,44,-0.5597473215,-1.3729407621,1.4780398641,-0.9282926691,,,
2.7597656250,44,-0.5545591681,-1.5973231139,1.3828948617,-0.5129899620,,,
2.7617187500,44,-0.5324878506,-1.7939229721,1.1512432342,-0.2778061624,,,
2.7636718750,44,-0.4941038212,-1.9466886520,0.8253609252,-0.2979202262,,,
2.7656250000,44,-0.4402684038,-2.0424755980,0.4614773630,-0.5766315153,,,
2.7675781250,44,-0.3721185281,-2.0719663948,0.1210059370,-1.0443083758,,,
2.7695312500,44,-0.2910466330,-2.0303242251,-0.1390289559,-1.5773425626,,,
2.7714843750,44,-0.1986760946,-1.9175341999,-0.2748772289,-2.0319159518,,,
2.7734375000,44,-0.0968326072,-1.7384087508,-0.2628768475,-2.2833262019,,,
2.7753906250,44,0.0124879811,-1.5022566977,-0.1031347321,-2.2600943022,,,
2.7773437500,44,0.1271548144,-1.2222390601,0.1804984590,-1.9635068841,,,
2.7792968750,44,0.2449395417,-0.9144565220,0.5441556856,-1.4672378640,,,
2.7812500000,44,0.3635555387,-0.5968321736,0.9308023856,-0.8971534422,,,
2.7832031250,44,0.4806981521,-0.2878674269,1.2791399956,-0.3968354210,,,
2.7851562500,44,0.5940852623,-0.0053578478,1.5331772473,-0.0882717777,,,
2.7871093750,44,0.7014974528,0.2348415605,1.6509783211,-0.0384877320,,,
2.7890625000,44,0.8008170832,0.4199155345,1.6112251340,-0.2412622290,,,
2.7910156250,44,0.8900655828,0.5409755534,1.4165714790,-0.6189401022,,,
2.7929687500,44,0.9674383098,0.5936728299,1.0932664022,-1.0438423599,,,
2.7949218750,44,1.0313363667,0.5784945563,0.6871052774,-1.3734056001,,,
2.7968750000,44,1.0803948142,0.5007227646,0.2563389990,-1.4894186375,,,
2.7988281250,44,1.1135067900,0.3700586849,-0.1373545050,-1.3306013384,,,
2.8007812500,44,1.1298431094,0.1999388121,-0.4384304499,-0.9095952132,,,
2.8027343750,44,1.1288670049,0.0065903913,-0.6060802671,-0.3097074419,,,
2.8046875000,44,1.1103437460,-0.1921077979,-0.6205378624,0.3377011311,,,
2.8066406250,44,1.0743449714,-0.3778799011,-0.4861070991,0.8889886983,,,
2.8085937500,44,1.0212476568,-0.5333351962,-0.2304392367,1.2273636852,,,
2.8105468750,44,0.9517277365,-0.6431886211,0.0998268470,1.2946518465,,,
2.8125000000,45,0.8667484914,-0.6953344902,0.4463823054,1.1069949952,,,
2.8144531250,45,0.7675439041,-0.6816985120,0.7483837917,0.7501809838,,,
2.8164062500,45,0.6555972755,-0.5988086740,0.9519835582,0.3558870302,,,
2.8183593750,45,0.5326154745,-0.4480451690,1.0187695351,0.0653495492,,,
2.8203125000,45,0.4004992735,-0.2355519177,0.9318005117,-0.0095803637,,,
2.8222656250,45,0.2613102878,0.0281841607,0.6982961283,0.1826798175,,,
2.8242187500,45,0.1172350982,0.3290568075,0.3485624168,0.6190882572,,,
2.8261718750,45,-0.0294528157,0.6503165675,-0.0686800263,1.2080868479,,,
2.8281250000,45,-0.1764326637,0.9737313617,-0.4938378384,1.8145009665,,,
2.8300781250,45,-0.3213767637,1.2808505782,-0.8656822393,2.2964083254,,,
2.8320312500,45,-0.4619910815,1.5542845456,-1.1308434069,2.5438738420,,,
2.8339843750,45,-0.5960551828,1.7789101847,-1.2520833132,2.5089358763,,,
2.8359375000,45,-0.7214608981,1.9429187795,-1.2140586996,2.2186267603,,,
2.8378906250,45,-0.8362490231,2.0386328179,-1.0256767819,1.7674601562,,,
2.8398437500,45,-0.9386434126,2.0630349561,-0.7186769593,1.2914451225,,,
2.8417968750,45,-1.0270818708,2.0179722341,-0.3426596046,0.9307495438,,,
2.8437500000,45,-1.1002432968,1.9100213158,0.0426636172,0.7912462530,,,
2.8457031250,45,-1.1570706115,1.7500241632,0.3767907140,0.9154811845,,,
2.8476562500,45,-1.1967890626,1.5523265372,0.6078697073,1.2710203983,,,
2.8496093750,45,-1.2189195891,1.3337724376,0.7007878694,1.7593695762,,,
2.8515625000,45,-1.2232870106,1.1125246154,0.6426498387,2.2430210881,,,
2.8535156250,45,-1.2100228977,0.9067934162,0.4447913093,2.5832153009,,,
2.8554687500,45,-1.1795630741,0.7335626087,0.1410146183,2.6780661478,,,
2.8574218750,45,-1.1326397944,0.6074010568,-0.2176789698,2.4906009556,,,
2.8593750000,45,-1.0702687338,0.5394431118,-0.5710398001,2.0590285388,,,
2.8613281250,45,-0.9937310182,0.5366088327,-0.8589648214,1.4864200977,,,
2.8632812500,45,-0.9045506094,0.6011184175,-1.0308736697,0.9126296284,,,
2.8652343750,45,-0.8044674418,0.7303347120,-1.0536053978,0.4761480209,,,
2.8671875000,45,-0.6954067799,0.9169447859,-0.9166058065,0.2763437629,,,
2.8691406250,45,-0.5794453352,1.1494679160,-0.6335973126,0.3464370935,,,
2.8710937500,45,-0.4587747342,1.4130545599,-0.2404711376,0.6446126335,,,
2.8730468750,45,-0.3356629775,1.6905206070,0.2102700278,1.0657042260,,,
2.8750000000,46,-0.2124145663,1.9635447878,0.6576534641,1.4702474315,,,
2.8769531250,46,-0.0913299931,2.2139457433,1.0416940750,1.7229351268,,,
2.8789062500,46,0.0253346941,2.4249497025,1.3126953713,1.7299345217,,,
2.8808593750,46,0.1354075438,2.5823603668,1.4389453204,1.4648359569,,,
2.8828125000,46,0.2368388783,2.6755494222,1.4116086196,0.9761195490,,,
2.8847656250,46,0.3277373237,2.6981986046,1.2460536335,0.3740911863,,,
2.8867187500,46,0.4064030658,2.6487415696,0.9794075707,-0.1991337287,,,
2.8886718750,46,0.4713577456,2.5304747509,0.6647209522,-0.6083742191,,,
2.8906250000,46,0.5213704739,2.3513294706,0.3626505583,-0.7622386938,,,
2.8925781250,46,0.5554795078,2.1233211909,0.1319565549,-0.6379918714,,,
2.8945312500,46,0.5730092094,1.8617143029,0.0202942054,-0.2876200450,,,
2.8964843750,46,0.5735819910,1.5839606917,0.0567346952,0.1765661074,,,
2.8984375000,46,0.5571250357,1.3084860844,0.2471802818,0.6128439700,,,
2.9003906250,46,0.5238716777,1.0534088068,0.5733881763,0.8890333316,,,
2.9023437500,46,0.4743574161,0.8352802841,0.9957554852,0.9188153953,,,
2.9042968750,46,0.4094106332,0.6679351052,1.4594317349,0.6854616829,,,
2.9062500000,46,0.3301381800,0.5615308290,1.9028072080,0.2464688260,,,
2.9082031250,46,0.2379060791,0.5218444791,2.2670552730,-0.2821714382,,,
2.9101562500,46,0.1343156865,0.5498747734,2.5052427173,-0.7577561659,,,
2.9121093750,46,0.0211757254,0.6417778137,2.5895893709,-1.0499979997,,,
2.9140625000,46,-0.0995293146,0.7891407073,2.5157465583,-1.0767711821,,,
2.9160156250,46,-0.2256738618,0.9795740277,2.3034282389,-0.8266794802,,,
2.9179687500,46,-0.3550284227,1.1975817851,1.9932967727,-0.3622602297,,,
2.9199218750,46,-0.4852985671,1.4256482275,1.6405885969,0.1970544334,,,
2.9218750000,46,-0.6141650551,1.6454656719,1.3064728615,0.7075503234,,,
2.9238281250,46,-0.7393244047,1.8392177288,1.0484891613,1.0404809286,,,
2.9257812500,46,-0.8585291885,1.9908284223,0.9115539196,1.1171982721,,,
2.9277343750,46,-0.9696273547,2.0870900847,0.9209363931,0.9305380853,,,
2.9296875000,46,-1.0705998831,2.1185913570,1.0782984702,0.5465998956,,,
2.9316406250,46,-1.1595961178,2.0803805672,1.3614152140,0.0864359181,,,
2.9335937500,46,-1.2349661569,1.9723182103,1.7276197869,-0.3073308489,,,
2.9355468750,46,-1.2952897327,1.7990939331,2.1204362820,-0.5098083827,,,
2.9375000000,47,-1.3394010772,1.5699068231,2.4783674333,-0.4482837744,,,
2.9394531250,47,-1.3664093356,1.2978312780,2.7444685204,-0.1223744493,,,
2.9414062500,47,-1.3757141731,0.9989126594,2.8752163119,0.3956425110,,,
2.9433593750,47,-1.3670162992,0.6910557759,2.8472916677,0.9804153528,,,
2.9453125000,47,-1.3403227267,0.3927836879,2.6612193624,1.4876514352,,,
2.9472656250,47,-1.2959466734,0.1219533704,2.3412981722,1.7934468947,,,
2.9492187500,47,-1.2345021066,-0.1054822244,1.9318320587,1.8280351947,,,
2.9511718750,47,-1.1568930282,-0.2765793938,1.4902493865,1.5947071165,,,
2.9531250000,47,-1.0642976860,-0.3822991487,1.0781817965,1.1687187342,,,
2.9550781250,47,-0.9581479891,-0.4181304868,0.7518921298,0.6764885057,,,
2.9570312500,47,-0.8401044868,-0.3843980289,0.5535421702,0.2607866634,,,
2.9589843750,47,-0.7120273494,-0.2862325820,0.5046601446,0.0414590423,,,
2.9609375000,47,-0.5759438595,-0.1332066978,0.6028252823,0.0824512154,,,
2.9628906250,47,-0.4340129824,0.0613393452,0.8220856423,0.3741719220,,,
2.9648437500,47,-0.2884876359,0.2812341179,1.1170439257,0.8360305596,,,
2.9667968750,47,-0.1416753206,0.5086088513,1.4299746678,1.3384542262,,,
2.9687500000,47,0.0041022005,0.7251494037,1.6998640384,1.7383508457,,,
2.9707031250,47,0.1465494666,0.9133790649,1.8719640077,1.9182995442,,,
2.9726562500,47,0.2834374180,1.0578827330,1.9063725124,1.8187277138,,,
2.9746093750,47,0.4126423275,1.1463870837,1.7843029490,1.4542561334,,,
2.9765625000,47,0.5321828822,1.1706213960,1.5110662145,0.9097323660,,,
2.9785156250,47,0.6402547661,1.1268989970,1.1153005457,0.3170392814,,,
2.9804687500,47,0.7352621393,1.0163787666,0.6445688262,-0.1809656941,,,
2.9824218750,47,0.8158454612,0.8449884576,0.1580088142,-0.4694981141,,,
2.9843750000,47,0.8809051719,0.6230151687,-0.2828192365,-0.4931799596,,,
2.9863281250,47,0.9296208159,0.3643915197,-0.6234623249,-0.2710725030,,,
2.9882812500,47,0.9614652747,0.0857272962,-0.8249978054,0.1087102238,,,
2.9902343750,47,0.9762138576,-0.1948459135,-0.8700381945,0.5133296633,,,
2.9921875000,47,0.9739480932,-0.4589365329,-0.7653826882,0.8018234696,,,
2.9941406250,47,0.9550541542,-0.6891732749,-0.5409026862,0.8639458857,,,
2.9960937500,47,0.9202159436,-0.8704146121,-0.2448351844,0.6506009594,,,
2.9980468750,47,0.8704029630,-0.9908031029,0.0637826156,0.1875258394,,,
3.0000000000,48,0.8068531766,-1.0425910551,0.3243588722,-0.4315280454,,,
3.0019531250,48,0.7310511691,-1.0226799540,0.4842325490,-1.0702491728,,,
3.0039062500,48,0.6447019828,-0.9328360400,0.5069210956,-1.5868813886,,,
3.0058593750,48,0.5497010892,-0.7795670042,0.3778455191,-1.8728305748,,,
3.0078125000,48,0.4481010226,-0.5736684009,0.1066409274,-1.8821837736,,,
3.0097656250,48,0.3420752608,-0.3294714050,-0.2743075299,-1.6440526296,,,
3.0117187500,48,0.2338799828,-0.0638443703,-0.7148754657,-1.2543603242,,,
3.0136718750,48,0.1258143762,0.2049821891,-1.1549765067,-0.8493250484,,,
3.0156250000,48,0.0201801873,0.4586852616,-1.5338947865,-0.5679094217,,,
3.0175781250,48,-0.0807587768,0.6801251085,-1.7997192189,-0.5135292829,,,
3.0195312500,48,-0.1748164844,0.8545381862,-1.9174102193,-0.7255181564,,,
3.0214843750,48,-0.2599231579,0.9705640372,-1.8742425226,-1.1681698419,,,
3.0234375000,48,-0.3341617189,1.0210345498,-1.6817764157,-1.7403637988,,,
3.0253906250,48,-0.3958015627,1.0034705548,-1.3740503972,-2.3031367235,,,
3.0273437500,48,-0.4433290707,0.9202511379,-1.0022767892,-2.7176450372,,,
3.0292968750,48,-0.4754743259,0.7784438704,-0.6268664900,-2.8831149918,,,
3.0312500000,48,-0.4912335635,0.5893078056,-0.3080250331,-2.7643803080,,,
3.0332031250,48,-0.4898869640,0.3675039080,-0.0963846276,-2.4014608118,,,
3.0351562500,48,-0.4710114768,0.1300679869,-0.0251312245,-1.8985573565,,,
3.0371093750,48,-0.4344884486,-0.1047822363,-0.1048527812,-1.3954794941,,,
3.0390625000,48,-0.3805059257,-0.3189227253,-0.3219110300,-1.0293368038,,,
3.0410156250,48,-0.3095555860,-0.4955924294,-0.6405902364,-0.8969930205,,,
3.0429687500,48,-0.2224243574,-0.6205677597,-1.0086881261,-1.0285728358,,,
3.0449218750,48,-0.1201808678,-0.6831603291,-1.3656780065,-1.3792818336,,,
3.0468750000,48,-0.0041569641,-0.6769683658,-1.6521706148,-1.8417807445,,,
3.0488281250,48,0.1240753766,-0.6003293868,-1.8192017665,-2.2757216861,,,
3.0507812500,48,0.2627313388,-0.4564425514,-1.8358989994,-2.5463502888,,,
3.0527343750,48,0.4098442861,-0.2531521463,-1.6943328710,-2.5615927438,,,
3.0546875000,48,0.5632999619,-0.0024072855,-1.4107970591,-2.2974618881,,,
3.0566406250,48,0.7208732731,0.2805645152,-1.0233176385,-1.8048176895,,,
3.0585937500,48,0.8802670145,0.5783122745,-0.5857792205,-1.1956275635,,,
3.0605468750,48,1.0391518551,0.8723714464,-0.1595825731,-0.6124903147,,,
3.0625000000,49,1.1952068865,1.1445444315,0.1958671810,-0.1897743319,,,
3.0644531250,49,1.3461600229,1.3781624220,0.4323605554,-0.0170188653,,,
3.0664062500,49,1.4898275472,1.5592406041,0.5203392187,-0.1146269054,,,
3.0683593750,49,1.6241521083,1.6774461796,0.4534460918,-0.4285093796,,,
3.0703125000,49,1.7472385069,1.7268117212,0.2494616123,-0.8451463680,,,
3.0722656250,49,1.8573866416,1.7061441328,-0.0525193694,-1.2229353452,,,
3.0742187500,49,1.9531210395,1.6191007144,-0.3982300624,-1.4312326791,,,
3.0761718750,49,2.0332164539,1.4739270452,-0.7267365635,-1.3863861664,,,
3.0781250000,49,2.0967190811,1.2828749790,-0.9799800896,-1.0748810998,,,
3.0800781250,49,2.1429630253,1.0613413539,-1.1118700808,-0.5572542328,,,
3.0820312500,49,2.1715817225,0.8267874945,-1.0955116081,0.0482989628,,,
3.0839843750,49,2.1825141250,0.5975148679,-0.9274411153,0.5981327809,,,
3.0859375000,49,2.1760055366,0.3913822881,-0.6282105035,0.9623497980,,,
3.0878906250,49,2.1526030853,0.2245541382,-0.2392283451,1.0602478147,,,
3.0898437500,49,2.1131459128,0.1103669150,0.1836500064,0.8823016538,,,
3.0917968750,49,2.0587502516,0.0583931523,0.5787852491,0.4926564716,,,
3.0937500000,49,1.9907896528,0.0737680120,0.8883208288,0.0114502696,,,
3.0957031250,49,1.9108707090,0.1568255164,1.0671636179,-0.4181886817,,,
3.0976562500,49,1.8208047001,0.3030698024,1.0899799578,-0.6694238459,,,
3.0996093750,49,1.7225756554,0.5034834156,0.9551175450,-0.6665053852,,,
3.1015625000,49,1.6183053944,0.7451511580,0.6848424371,-0.4055415931,,,
3.1035156250,49,1.5102161564,1.0121559989,0.3218543786,0.0444460665,,,
3.1054687500,49,1.4005914746,1.2866845867,-0.0773767053,0.5604732924,,,
3.1074218750,49,1.2917359793,1.5502652799,-0.4514150975,0.9993545539,,,
3.1093750000,49,1.1859348344,1.7850523771,-0.7434331761,1.2370223480,,,
3.1113281250,49,1.0854135177,1.9750670028,-0.9100635878,1.2026270973,,,
3.1132812500,49,0.9922986490,2.1073081244,-0.9281509201,0.8980709631,,,
3.1152343750,49,0.9085805525,2.1726562369,-0.7983512774,0.3976207901,,,
3.1171875000,49,0.8360782084,2.1665067036,-0.5450191374,-0.1722950538,,,
3.1191406250,49,0.7764072087,2.0890885965,-0.2123991623,-0.6675703402,,,
3.1210937500,49,0.7309512769,1.9454468072,0.1422838163,-0.9657358296,,,
3.1230468750,49,0.7008378518,1.7450886810,0.4577602750,-0.9993320349,,,
3.1250000000,50,0.6869181620,1.5013198216,0.6782850799,-0.7741952885,,,
3.1269531250,50,0.6897521412,1.2303153835,0.7623496033,-0.3676474077,,,
3.1289062500,50,0.7095984465,0.9499916197,0.6891797693,0.0929128502,,,
3.1308593750,50,0.7464097577,0.6787563743,0.4620077553,0.4651470110,,,
3.1328125000,50,0.7998334366,0.4342256556,0.1076075800,0.6310105967,,,
3.1347656250,50,0.8692175379,0.2319957861,-0.3278332870,0.5293283952,,,
3.1367187500,50,0.9536220638,0.0845567503,-0.7858634911,0.1727812351,,,
3.1386718750,50,1.0518352681,0.0004225163,-1.2048251799,-0.3553534278,,,
3.1406250000,50,1.1623947214,-0.0164610272,-1.5294087178,-0.9238158916,,,
3.1425781250,50,1.2836127717,0.0330107656,-1.7192167815,-1.3891376607,,,
3.1445312500,50,1.4136059523,0.1431660781,-1.7550041987,-1.6347714883,,,
3.1464843750,50,1.5503278228,0.3039548345,-1.6416219104,-1.6028554903,,,
3.1484375000,50,1.6916046697,0.5016525506,-1.4072067990,-1.3099074763,,,
3.1503906250,50,1.8351734388,0.7198207462,-1.0987438540,-0.8421497610,,,
3.1523437500,50,1.9787212381,0.9404569384,-0.7746921797,-0.3317472444,,,
3.1542968750,50,2.1199257173,1.1452540150,-0.4958236739,0.0795275057,,,
3.1562500000,50,2.2564956184,1.3168811607,-0.3157015938,0.2792427283,,,
3.1582031250,50,2.3862107873,1.4401970026,-0.2722823143,0.2151939418,,,
3.1601562500,50,2.5069609443,1.5033103689,-0.3819486397,-0.0902373988,,,
3.1621093750,50,2.6167825376,1.4984146815,-0.6369042981,-0.5461889011,,,
3.1640625000,50,2.7138930310,1.4223377835,-1.0063357220,-1.0182130516,,,
3.1660156250,50,2.7967220289,1.2767688522,-1.4411604376,-1.3651408069,,,
3.1679687500,50,2.8639386912,1.0681465584,-1.8816227439,-1.4778097017,,,
3.1699218750,50,2.9144749590,0.8072162608,-2.2665538733,-1.3090419982,,,
3.1718750000,50,2.9475441850,0.5082870981,-2.5428545639,-0.8866563009,,,
3.1738281250,50,2.9626548415,0.1882407715,-2.6737233200,-0.3059458730,,,
3.1757812500,50,2.9596190662,-0.1346388774,-2.6443489882,0.2963157384,,,
3.1777343750,50,2.9385558969,-0.4419338891,-2.4641812125,0.7792185411,,,
3.1796875000,50,2.8998891375,-0.7163694038,-2.1654253249,1.0361758029,,,
3.1816406250,50,2.8443398937,-0.9430110230,-1.7979962811,1.0239603649,,,
3.1835937500,50,2.7729139083,-1.1102988372,-1.4217177515,0.7743611282,,,
3.1855468750,50,2.6868839177,-1.2108460280,-1.0969815447,0.3852667060,,,
3.1875000000,51,2.5877673403,-1.2419463750,-0.8753223314,-0.0063782440,,,
3.1894531250,51,2.4772996850,-1.2057552908,-0.7913758098,-0.2623302351,,,
3.1914062500,51,2.3574041474,-1.1091317801,-0.8574729564,-0.2811675866,,,
3.1933593750,51,2.2301579250,-0.9631523591,-1.0617124005,-0.0263246804,,,
3.1953125000,51,2.0977558417,-0.7823308482,-1.3698112043,0.4636456384,,,
3.1972656250,51,1.9624719185,-0.5835984632,-1.7304458021,1.0853962965,,,
3.1992187500,51,1.8266195628,-0.3851153420,-2.0832512224,1.6988694728,,,
3.2011718750,51,1.6925110746,-0.2049964014,-2.3682326519,2.1654446531,,,
3.2031250000,51,1.5624171768,-0.0600403910,-2.5351234000,2.3856981628,,,
3.2050781250,51,1.4385272800,0.0354492115,-2.5512316522,2.3264275141,,,
3.2070312500,51,1.3229111765,0.0706692243,-2.4065537554,2.0295360340,,,
3.2089843750,51,1.2174828343,0.0390776030,-2.1153575147,1.6003447030,,,
3.2109375000,51,1.1239669259,-0.0611429708,-1.7139887716,1.1785364181,,,
3.2128906250,51,1.0438686765,-0.2269510998,-1.2552427623,0.8996977057,,,
3.2148437500,51,0.9784475608,-0.4506516390,-0.8001767874,0.8579997286,,,
3.2167968750,51,0.9286953086,-0.7204253437,-0.4086392369,1.0802480374,,,
3.2187500000,51,0.8953186036,-1.0211462797,-0.1299899339,1.5184145208,,,
